2024-03-14 09:29:32
ple_type	Xylophone
sple_name	Acier Doux T
rho[g/cm3]	7.511
length[mm]	58.84
thickness[mm]	1.53
width[mm]	4.09
comments:

DDC CFreq[Hz]	9959000
Gap	15.00u
sens Hz/µm	0.00
measurements
time[s]	Fres[Hz]	Fres_std[Hz]	MotPos[mm]	fit_Ao	fit_tau	fit_Q_1	fit_sigma	fit_Nsples	E[Pa]	T[°C]	dT/dt[K/s]
0.000	2228.700	0.157	0.000	998.8	0.5415	2.63761E-4	10.5	410	1.807937E+11	26.059	-0.0149
5.041	2228.710	0.119	0.000	973.0	0.5423	2.63378E-4	10.3	398	1.807954E+11	26.057	-0.0230
10.080	2228.772	0.145	0.000	969.3	0.5429	2.63068E-4	10.0	398	1.808055E+11	26.051	0.0413
15.100	2228.701	0.133	0.000	954.7	0.5512	2.59114E-4	10.2	414	1.807939E+11	26.008	0.0141
20.140	2228.666	0.127	0.000	977.2	0.5445	2.62305E-4	10.8	401	1.807883E+11	25.941	0.0699
25.180	2228.720	0.129	0.000	1027.9	0.5373	2.65813E-4	10.7	401	1.807971E+11	25.884	0.1644
30.220	2228.723	0.166	0.000	1010.4	0.5419	2.63567E-4	10.2	414	1.807975E+11	25.623	0.1980
35.261	2228.746	0.138	0.000	980.5	0.5446	2.62253E-4	9.4	400	1.808012E+11	25.448	0.2002
40.280	2228.723	0.116	0.000	956.5	0.5514	2.59025E-4	9.5	398	1.807975E+11	25.696	0.2223
45.320	2228.738	0.129	0.000	972.7	0.5511	2.59144E-4	10.2	405	1.807999E+11	26.006	0.2360
50.340	2228.709	0.161	0.000	949.2	0.5536	2.57984E-4	10.0	404	1.807953E+11	26.169	0.4262
55.380	2228.614	0.147	0.000	952.7	0.5601	2.55011E-4	9.9	431	1.807798E+11	25.772	-0.1207
60.400	2228.617	0.149	0.000	997.8	0.5412	2.63921E-4	10.5	407	1.807803E+11	25.903	-0.9418
65.420	2228.576	0.174	0.000	960.8	0.5548	2.57461E-4	9.7	408	1.807737E+11	26.104	-1.0061
70.440	2228.452	0.157	0.000	947.8	0.5584	2.55787E-4	9.8	407	1.807536E+11	26.407	-0.5460
75.460	2228.424	0.125	0.000	993.7	0.5433	2.62907E-4	10.3	407	1.807490E+11	26.783	0.6395
80.500	2228.377	0.155	0.000	968.6	0.5522	2.58699E-4	9.9	411	1.807414E+11	27.119	1.7112
85.539	2228.293	0.187	0.000	922.3	0.5658	2.52457E-4	9.7	401	1.807278E+11	27.300	1.9335
90.560	2228.203	0.131	0.000	918.6	0.5700	2.50616E-4	10.7	421	1.807131E+11	27.421	2.3045
95.600	2228.091	0.158	0.000	926.9	0.5693	2.50924E-4	10.3	426	1.806950E+11	27.363	2.4193
100.640	2228.018	0.125	0.000	933.1	0.5609	2.54719E-4	10.1	401	1.806832E+11	27.413	2.6045
105.680	2227.902	0.134	0.000	908.1	0.5676	2.51697E-4	9.2	422	1.806644E+11	27.680	2.8018
110.700	2227.797	0.137	0.000	898.7	0.5732	2.49290E-4	9.7	428	1.806474E+11	27.844	2.9047
115.720	2227.691	0.172	0.000	887.8	0.5755	2.48306E-4	9.8	421	1.806302E+11	27.996	3.0419
120.760	2227.576	0.157	0.000	888.0	0.5712	2.50173E-4	10.3	421	1.806115E+11	28.229	2.9076
125.781	2227.413	0.118	0.000	903.1	0.5710	2.50287E-4	9.6	426	1.805851E+11	28.420	2.7920
130.800	2227.376	0.149	0.000	940.0	0.5600	2.55183E-4	9.7	401	1.805790E+11	28.599	2.6671
135.820	2227.193	0.177	0.000	879.3	0.5792	2.46734E-4	9.7	416	1.805494E+11	28.739	2.6115
140.840	2227.080	0.100	0.000	948.1	0.5593	2.55542E-4	10.5	401	1.805311E+11	28.968	2.5508
145.860	2227.018	0.098	0.000	958.3	0.5574	2.56424E-4	9.6	405	1.805210E+11	29.128	2.5252
150.880	2226.943	0.147	0.000	914.0	0.5705	2.50532E-4	10.2	419	1.805088E+11	29.283	2.4406
155.920	2226.831	0.201	0.000	878.4	0.5677	2.51808E-4	10.2	419	1.804907E+11	29.521	2.4278
160.961	2226.672	0.131	0.000	895.6	0.5761	2.48159E-4	10.0	435	1.804649E+11	29.640	2.3689
166.000	2226.522	0.124	0.000	935.1	0.5586	2.55947E-4	10.6	414	1.804405E+11	29.742	2.2935
171.040	2226.425	0.142	0.000	946.8	0.5571	2.56615E-4	9.6	401	1.804250E+11	29.998	2.3555
176.060	2226.348	0.133	0.000	935.8	0.5597	2.55430E-4	9.9	401	1.804123E+11	29.852	2.2179
181.100	2226.228	0.154	0.000	914.5	0.5658	2.52703E-4	10.2	422	1.803929E+11	30.001	2.2681
186.121	2226.097	0.128	0.000	938.0	0.5659	2.52689E-4	9.8	422	1.803717E+11	30.190	2.2061
191.141	2226.031	0.174	0.000	936.0	0.5604	2.55152E-4	11.0	435	1.803610E+11	30.404	2.1753
196.181	2225.940	0.100	0.000	876.1	0.5737	2.49262E-4	10.2	422	1.803463E+11	30.625	2.2189
201.220	2225.807	0.138	0.000	897.7	0.5777	2.47563E-4	9.7	435	1.803248E+11	30.866	2.2586
206.240	2225.633	0.112	0.000	883.5	0.5747	2.48839E-4	9.9	432	1.802966E+11	31.071	2.3445
211.280	2225.539	0.120	0.000	905.8	0.5648	2.53228E-4	9.8	421	1.802814E+11	31.159	2.2839
216.319	2225.449	0.133	0.000	896.4	0.5692	2.51264E-4	10.2	425	1.802667E+11	31.369	2.2975
221.340	2225.358	0.160	0.000	877.7	0.5743	2.49048E-4	9.1	425	1.802520E+11	31.530	2.3009
226.380	2225.185	0.178	0.000	867.1	0.5777	2.47596E-4	10.2	428	1.802240E+11	31.711	2.2719
231.420	2225.053	0.152	0.000	918.7	0.5622	2.54475E-4	9.8	435	1.802026E+11	31.907	2.3150
236.460	2224.921	0.150	0.000	907.2	0.5673	2.52177E-4	10.3	422	1.801811E+11	32.093	2.3148
241.500	2224.786	0.129	0.000	931.2	0.5576	2.56589E-4	10.1	405	1.801593E+11	32.232	2.3234
246.540	2224.676	0.141	0.000	909.5	0.5589	2.55998E-4	10.3	398	1.801416E+11	32.487	2.3346
251.580	2224.566	0.115	0.000	918.1	0.5627	2.54304E-4	10.0	432	1.801237E+11	32.662	2.3262
256.600	2224.442	0.169	0.000	894.7	0.5645	2.53507E-4	10.3	421	1.801036E+11	32.738	2.1344
261.620	2224.342	0.139	0.000	912.0	0.5559	2.57422E-4	9.8	407	1.800874E+11	32.961	2.1729
266.640	2224.250	0.183	0.000	898.7	0.5650	2.53280E-4	9.7	429	1.800726E+11	33.245	2.2269
271.681	2224.132	0.134	0.000	867.1	0.5785	2.47392E-4	10.3	422	1.800535E+11	33.406	2.2768
276.700	2223.993	0.103	0.000	873.3	0.5713	2.50510E-4	10.2	426	1.800309E+11	33.649	2.2423
281.720	2223.855	0.177	0.000	892.5	0.5675	2.52221E-4	9.8	429	1.800085E+11	33.851	2.2940
286.740	2223.722	0.144	0.000	913.7	0.5607	2.55274E-4	10.4	411	1.799870E+11	34.052	2.3736
291.760	2223.558	0.156	0.000	911.7	0.5537	2.58526E-4	9.4	401	1.799605E+11	34.282	2.3716
296.800	2223.472	0.162	0.000	954.8	0.5480	2.61221E-4	9.7	411	1.799466E+11	34.527	2.4424
301.820	2223.399	0.134	0.000	925.1	0.5609	2.55253E-4	10.6	432	1.799347E+11	34.614	2.4013
306.861	2223.244	0.189	0.000	864.6	0.5667	2.52643E-4	9.4	429	1.799096E+11	34.912	2.4291
311.900	2223.105	0.125	0.000	870.0	0.5641	2.53845E-4	9.7	401	1.798872E+11	35.083	2.4618
316.920	2223.023	0.162	0.000	885.6	0.5559	2.57564E-4	9.8	401	1.798739E+11	35.303	2.3969
321.960	2222.911	0.192	0.000	851.0	0.5667	2.52678E-4	9.6	397	1.798557E+11	35.473	2.4221
326.980	2222.779	0.147	0.000	854.1	0.5696	2.51422E-4	9.4	422	1.798345E+11	35.634	2.4380
332.000	2222.577	0.136	0.000	859.6	0.5651	2.53424E-4	9.2	400	1.798018E+11	35.839	2.4469
337.040	2222.499	0.120	0.000	925.5	0.5446	2.63009E-4	10.1	404	1.797891E+11	36.039	2.4731
342.080	2222.356	0.180	0.000	909.7	0.5516	2.59664E-4	10.1	411	1.797660E+11	36.282	2.4385
347.100	2222.230	0.157	0.000	915.4	0.5476	2.61556E-4	10.5	401	1.797456E+11	36.405	2.4221
352.140	2222.112	0.160	0.000	930.2	0.5441	2.63268E-4	9.7	407	1.797264E+11	36.587	2.3854
357.180	2222.086	0.144	0.000	935.9	0.5445	2.63067E-4	10.4	411	1.797223E+11	36.759	2.3703
362.201	2221.922	0.131	0.000	832.2	0.5653	2.53400E-4	9.2	405	1.796958E+11	37.043	2.3883
367.221	2221.835	0.188	0.000	868.7	0.5512	2.59915E-4	10.1	404	1.796817E+11	37.199	2.3765
372.240	2221.741	0.138	0.000	842.6	0.5583	2.56627E-4	9.8	400	1.796666E+11	37.340	2.3451
377.280	2221.616	0.148	0.000	841.7	0.5633	2.54375E-4	9.9	432	1.796463E+11	37.620	2.3138
382.300	2221.434	0.127	0.000	842.6	0.5557	2.57878E-4	9.5	401	1.796169E+11	37.877	2.2861
387.320	2221.311	0.166	0.000	896.6	0.5440	2.63438E-4	9.6	407	1.795969E+11	37.957	2.3152
392.360	2221.167	0.156	0.000	920.2	0.5418	2.64525E-4	10.1	414	1.795737E+11	38.277	2.3602
397.380	2221.045	0.118	0.000	944.5	0.5291	2.70870E-4	9.6	392	1.795540E+11	38.500	2.3542
402.420	2220.963	0.108	0.000	922.6	0.5277	2.71614E-4	9.1	377	1.795407E+11	38.715	2.2964
407.440	2220.827	0.159	0.000	902.2	0.5420	2.64454E-4	9.3	401	1.795188E+11	38.814	2.2640
412.460	2220.771	0.140	0.000	927.9	0.5315	2.69691E-4	10.2	385	1.795097E+11	38.811	2.1548
417.480	2220.687	0.109	0.000	872.7	0.5430	2.63979E-4	9.7	377	1.794961E+11	38.941	2.1233
422.500	2220.556	0.187	0.000	865.3	0.5439	2.63568E-4	9.6	404	1.794749E+11	39.223	2.1226
427.540	2220.427	0.115	0.000	880.2	0.5374	2.66743E-4	9.8	401	1.794541E+11	39.416	2.0024
432.560	2220.294	0.141	0.000	894.6	0.5338	2.68587E-4	9.9	404	1.794326E+11	39.546	1.9781
437.600	2220.196	0.114	0.000	906.7	0.5286	2.71248E-4	9.6	380	1.794168E+11	39.926	2.0279
442.641	2220.086	0.140	0.000	901.7	0.5303	2.70386E-4	9.4	376	1.793990E+11	39.884	1.9652
447.680	2219.948	0.188	0.000	906.3	0.5299	2.70614E-4	9.4	380	1.793767E+11	39.950	1.9752
452.700	2219.822	0.151	0.000	927.9	0.5242	2.73559E-4	9.4	380	1.793563E+11	40.241	1.9681
457.720	2219.743	0.090	0.000	956.4	0.5195	2.76051E-4	9.7	392	1.793435E+11	40.353	1.9014
462.741	2219.615	0.131	0.000	886.4	0.5240	2.73689E-4	9.5	377	1.793229E+11	40.414	1.9067
467.780	2219.512	0.135	0.000	917.2	0.5185	2.76595E-4	9.3	388	1.793061E+11	40.747	2.0659
472.800	2219.434	0.202	0.000	918.3	0.5167	2.77570E-4	9.8	391	1.792936E+11	40.930	2.0626
477.820	2219.361	0.166	0.000	881.2	0.5276	2.71862E-4	9.3	380	1.792817E+11	41.004	1.9419
482.860	2219.189	0.155	0.000	845.5	0.5304	2.70408E-4	8.9	373	1.792541E+11	41.116	1.8496
487.900	2219.059	0.114	0.000	924.7	0.5150	2.78530E-4	10.1	392	1.792330E+11	41.246	1.8224
492.920	2218.998	0.147	0.000	919.7	0.5107	2.80889E-4	9.9	380	1.792232E+11	41.366	1.8665
497.960	2218.850	0.115	0.000	889.3	0.5191	2.76364E-4	9.1	382	1.791993E+11	41.473	1.8852
503.000	2218.784	0.156	0.000	915.8	0.5124	2.79964E-4	9.4	380	1.791885E+11	41.560	1.7758
508.040	2218.707	0.102	0.000	885.5	0.5121	2.80148E-4	10.0	377	1.791762E+11	41.780	1.7532
513.080	2218.589	0.168	0.000	877.3	0.5179	2.77040E-4	9.2	385	1.791571E+11	41.865	1.7719
518.100	2218.446	0.117	0.000	884.7	0.5155	2.78339E-4	9.0	385	1.791340E+11	42.142	1.9582
523.120	2218.302	0.108	0.000	904.7	0.5060	2.83571E-4	9.7	357	1.791108E+11	42.296	1.9404
528.160	2218.214	0.099	0.000	914.4	0.4985	2.87852E-4	9.6	363	1.790966E+11	42.560	1.9710
533.180	2218.135	0.175	0.000	889.0	0.5054	2.83942E-4	10.5	377	1.790838E+11	42.759	1.9846
538.220	2218.043	0.165	0.000	880.3	0.5072	2.82929E-4	9.8	382	1.790690E+11	42.983	1.9968
543.260	2217.907	0.150	0.000	878.6	0.5013	2.86319E-4	8.9	362	1.790470E+11	43.127	2.1107
548.280	2217.813	0.106	0.000	911.6	0.4930	2.91140E-4	9.7	366	1.790319E+11	43.384	2.1279
553.320	2217.697	0.112	0.000	908.9	0.4928	2.91251E-4	9.5	366	1.790131E+11	43.533	2.1638
558.341	2217.597	0.221	0.000	907.3	0.4904	2.92681E-4	9.4	357	1.789970E+11	43.610	2.0572
563.380	2217.574	0.121	0.000	908.0	0.4878	2.94267E-4	9.6	357	1.789933E+11	43.721	2.0103
568.400	2217.413	0.155	0.000	858.9	0.4978	2.88370E-4	10.0	357	1.789671E+11	43.957	2.0386
573.441	2217.429	0.154	0.000	904.3	0.4875	2.94431E-4	9.4	357	1.789698E+11	44.014	2.0069
578.460	2217.233	0.190	0.000	837.9	0.5023	2.85805E-4	9.3	363	1.789381E+11	44.171	1.9624
583.500	2217.213	0.169	0.000	907.1	0.4813	2.98281E-4	9.2	342	1.789349E+11	44.426	2.0413
588.521	2217.117	0.181	0.000	851.5	0.4968	2.88980E-4	9.5	362	1.789195E+11	44.645	2.0894
593.540	2217.046	0.165	0.000	864.4	0.4896	2.93241E-4	9.8	368	1.789079E+11	44.841	2.2039
598.580	2216.961	0.156	0.000	840.7	0.4964	2.89240E-4	9.3	366	1.788942E+11	44.924	2.1788
603.600	2216.801	0.170	0.000	834.7	0.4935	2.90980E-4	9.7	365	1.788684E+11	45.073	2.1427
608.640	2216.732	0.198	0.000	882.5	0.4761	3.01616E-4	9.1	344	1.788572E+11	45.254	2.1599
613.660	2216.677	0.167	0.000	853.9	0.4878	2.94391E-4	9.8	363	1.788485E+11	45.513	2.2274
618.680	2216.482	0.149	0.000	833.3	0.4902	2.92962E-4	9.5	367	1.788170E+11	45.775	2.2904
623.720	2216.443	0.173	0.000	885.2	0.4772	3.00958E-4	9.5	361	1.788107E+11	45.962	2.2941
628.760	2216.348	0.129	0.000	845.0	0.4784	3.00196E-4	9.3	367	1.787953E+11	46.173	2.2854
633.780	2216.130	0.229	0.000	834.5	0.4827	2.97556E-4	9.3	368	1.787602E+11	46.335	2.2828
638.800	2216.113	0.128	0.000	881.1	0.4660	3.08205E-4	9.2	333	1.787574E+11	46.571	2.3306
643.820	2215.957	0.148	0.000	850.2	0.4685	3.06604E-4	9.6	343	1.787323E+11	46.708	2.2590
648.840	2215.909	0.134	0.000	892.5	0.4598	3.12428E-4	8.9	344	1.787245E+11	46.948	2.2563
653.880	2215.776	0.117	0.000	862.9	0.4621	3.10874E-4	8.9	344	1.787031E+11	47.090	2.2640
658.921	2215.713	0.152	0.000	884.6	0.4568	3.14525E-4	8.6	342	1.786929E+11	47.247	2.2127
663.960	2215.633	0.149	0.000	857.2	0.4605	3.11986E-4	9.6	337	1.786800E+11	47.398	2.1748
668.980	2215.577	0.194	0.000	857.5	0.4615	3.11332E-4	9.3	338	1.786709E+11	47.686	2.2112
674.020	2215.439	0.142	0.000	850.9	0.4592	3.12899E-4	9.7	348	1.786487E+11	47.832	2.2299
679.041	2215.412	0.173	0.000	873.7	0.4552	3.15623E-4	9.1	344	1.786444E+11	48.028	2.2653
684.080	2215.259	0.189	0.000	832.7	0.4587	3.13276E-4	8.7	342	1.786197E+11	48.173	2.3130
689.120	2215.228	0.104	0.000	856.7	0.4523	3.17703E-4	9.0	313	1.786148E+11	48.516	2.2382
694.140	2215.112	0.152	0.000	838.2	0.4590	3.13073E-4	9.3	344	1.785960E+11	48.700	2.1637
699.160	2215.072	0.170	0.000	842.5	0.4518	3.18096E-4	8.8	337	1.785896E+11	48.817	2.0292
704.181	2214.997	0.155	0.000	823.6	0.4564	3.14896E-4	8.4	338	1.785775E+11	48.981	2.0154
709.200	2214.877	0.179	0.000	814.0	0.4527	3.17454E-4	8.3	338	1.785580E+11	49.072	1.9894
714.240	2214.720	0.141	0.000	826.7	0.4470	3.21524E-4	8.7	313	1.785328E+11	49.137	1.9054
719.280	2214.702	0.151	0.000	860.7	0.4389	3.27483E-4	9.5	311	1.785299E+11	49.391	1.9283
724.300	2214.672	0.116	0.000	821.6	0.4426	3.24752E-4	8.3	311	1.785250E+11	49.506	1.8417
729.340	2214.489	0.160	0.000	795.8	0.4479	3.20913E-4	9.0	315	1.784956E+11	49.564	1.8346
734.380	2214.364	0.167	0.000	865.1	0.4319	3.32797E-4	9.9	321	1.784755E+11	49.710	1.8391
739.401	2214.307	0.147	0.000	880.7	0.4281	3.35812E-4	8.7	320	1.784662E+11	49.762	1.7734
744.420	2214.337	0.126	0.000	863.0	0.4286	3.35389E-4	9.4	318	1.784711E+11	49.841	1.7629
749.460	2214.229	0.187	0.000	814.4	0.4349	3.30516E-4	9.0	326	1.784537E+11	50.066	1.7956
754.500	2214.052	0.162	0.000	821.0	0.4332	3.31905E-4	9.6	325	1.784251E+11	50.337	1.8416
759.541	2214.068	0.172	0.000	851.7	0.4257	3.37715E-4	9.2	315	1.784276E+11	50.511	1.8077
764.580	2213.988	0.099	0.000	812.3	0.4304	3.34038E-4	8.6	321	1.784147E+11	50.574	1.7396
769.600	2213.931	0.219	0.000	800.1	0.4295	3.34791E-4	9.0	316	1.784056E+11	50.707	1.7531
774.620	2213.781	0.140	0.000	808.3	0.4310	3.33610E-4	9.3	326	1.783815E+11	50.890	1.7400
779.640	2213.653	0.121	0.000	821.3	0.4232	3.39787E-4	9.0	318	1.783608E+11	51.068	1.8104
784.660	2213.652	0.141	0.000	850.1	0.4127	3.48402E-4	9.3	297	1.783606E+11	51.156	1.8214
789.701	2213.629	0.153	0.000	794.7	0.4206	3.41867E-4	9.2	291	1.783570E+11	51.301	1.8171
794.720	2213.520	0.094	0.000	757.4	0.4306	3.33962E-4	8.8	311	1.783393E+11	51.558	1.9085
799.740	2213.378	0.170	0.000	776.5	0.4169	3.44993E-4	8.7	291	1.783165E+11	51.670	1.8927
804.780	2213.374	0.148	0.000	808.3	0.4135	3.47761E-4	9.2	293	1.783159E+11	51.874	1.9851
809.800	2213.356	0.234	0.000	779.5	0.4191	3.43153E-4	8.5	300	1.783129E+11	52.093	2.0385
814.820	2213.194	0.124	0.000	740.0	0.4236	3.39493E-4	9.3	319	1.782869E+11	52.311	2.0261
819.840	2213.063	0.138	0.000	779.3	0.4142	3.47269E-4	8.9	295	1.782658E+11	52.444	1.9513
824.881	2213.003	0.163	0.000	798.9	0.4094	3.51331E-4	8.8	293	1.782560E+11	52.677	1.9618
829.920	2212.951	0.172	0.000	798.7	0.4034	3.56610E-4	8.2	299	1.782478E+11	52.875	2.0249
834.960	2212.897	0.199	0.000	769.8	0.4051	3.55093E-4	9.0	291	1.782390E+11	53.054	2.1165
840.000	2212.708	0.202	0.000	762.4	0.4061	3.54204E-4	9.4	295	1.782086E+11	53.322	2.1302
845.040	2212.625	0.144	0.000	813.3	0.3955	3.63772E-4	8.9	294	1.781952E+11	53.381	2.0431
850.060	2212.604	0.112	0.000	815.2	0.3940	3.65100E-4	8.1	295	1.781919E+11	53.587	2.0306
855.100	2212.508	0.143	0.000	799.8	0.3942	3.64962E-4	8.8	303	1.781764E+11	53.775	2.0481
860.120	2212.446	0.163	0.000	789.9	0.3942	3.64946E-4	8.9	294	1.781663E+11	53.969	2.1256
865.140	2212.393	0.133	0.000	786.3	0.3903	3.68661E-4	9.0	273	1.781578E+11	54.165	2.1906
870.179	2212.245	0.142	0.000	764.4	0.3866	3.72216E-4	8.6	267	1.781339E+11	54.340	2.2125
875.220	2212.225	0.199	0.000	804.9	0.3832	3.75457E-4	8.4	273	1.781307E+11	54.555	2.1371
880.240	2212.196	0.164	0.000	782.5	0.3867	3.72049E-4	9.0	276	1.781261E+11	54.727	2.1630
885.261	2212.113	0.172	0.000	766.6	0.3840	3.74731E-4	8.7	279	1.781127E+11	55.025	2.1925
890.300	2212.015	0.097	0.000	762.6	0.3821	3.76630E-4	8.8	276	1.780969E+11	55.215	2.1990
895.320	2211.939	0.131	0.000	761.7	0.3820	3.76704E-4	8.3	271	1.780847E+11	55.367	2.2086
900.360	2211.861	0.167	0.000	778.1	0.3788	3.79883E-4	8.9	279	1.780721E+11	55.673	2.2073
905.380	2211.755	0.159	0.000	755.6	0.3785	3.80195E-4	8.9	269	1.780551E+11	55.842	2.2376
910.420	2211.634	0.069	0.000	786.1	0.3733	3.85597E-4	8.8	278	1.780357E+11	56.140	2.1757
915.460	2211.690	0.261	0.000	794.2	0.3720	3.86914E-4	8.8	275	1.780446E+11	56.329	2.2036
920.480	2211.635	0.139	0.000	758.1	0.3744	3.84430E-4	9.1	281	1.780357E+11	56.319	2.0852
925.520	2211.384	0.192	0.000	727.2	0.3752	3.83600E-4	9.0	274	1.779953E+11	56.463	2.0388
930.540	2211.420	0.079	0.000	795.1	0.3599	3.99887E-4	8.7	250	1.780011E+11	56.583	1.9677
935.560	2211.297	0.116	0.000	749.7	0.3685	3.90627E-4	9.1	273	1.779813E+11	56.639	1.8265
940.580	2211.286	0.177	0.000	769.7	0.3631	3.96415E-4	8.8	252	1.779796E+11	56.679	1.8521
945.600	2211.204	0.242	0.000	741.6	0.3624	3.97175E-4	8.9	273	1.779664E+11	56.791	1.8524
950.620	2211.087	0.152	0.000	741.6	0.3602	3.99666E-4	8.7	252	1.779476E+11	56.871	1.8948
955.640	2210.985	0.221	0.000	755.8	0.3568	4.03516E-4	8.6	251	1.779311E+11	57.008	1.8388
960.680	2210.992	0.220	0.000	759.9	0.3520	4.09048E-4	8.2	252	1.779323E+11	57.322	1.8405
965.700	2210.887	0.179	0.000	713.5	0.3552	4.05343E-4	8.1	248	1.779153E+11	57.422	1.7774
970.740	2210.852	0.135	0.000	740.0	0.3515	4.09560E-4	9.1	256	1.779097E+11	57.480	1.7532
975.760	2210.753	0.175	0.000	731.6	0.3517	4.09375E-4	9.4	261	1.778938E+11	57.687	1.7717
980.780	2210.696	0.233	0.000	724.4	0.3522	4.08838E-4	8.3	253	1.778845E+11	57.860	1.8106
985.800	2210.627	0.127	0.000	727.7	0.3474	4.14521E-4	8.5	259	1.778735E+11	58.116	1.8323
990.839	2210.564	0.216	0.000	709.8	0.3441	4.18459E-4	9.0	251	1.778634E+11	58.276	1.7669
995.880	2210.431	0.112	0.000	704.7	0.3463	4.15778E-4	8.8	253	1.778419E+11	58.431	1.7650
1000.920	2210.456	0.159	0.000	729.1	0.3443	4.18225E-4	8.4	255	1.778459E+11	58.614	1.7501
1005.961	2210.312	0.171	0.000	690.8	0.3431	4.19758E-4	9.1	254	1.778228E+11	58.747	1.7521
1010.980	2210.278	0.130	0.000	719.6	0.3393	4.24425E-4	9.4	255	1.778173E+11	58.896	1.7676
1016.000	2210.171	0.201	0.000	692.7	0.3418	4.21316E-4	9.0	251	1.778001E+11	58.953	1.7123
1021.040	2210.164	0.227	0.000	709.2	0.3339	4.31369E-4	8.9	230	1.777990E+11	59.205	1.7838
1026.080	2210.034	0.196	0.000	715.1	0.3382	4.25893E-4	8.7	262	1.777781E+11	59.402	1.8576
1031.101	2209.864	0.192	0.000	704.4	0.3338	4.31548E-4	8.4	230	1.777507E+11	59.604	1.8779
1036.141	2209.847	0.143	0.000	733.8	0.3272	4.40179E-4	8.5	230	1.777480E+11	59.794	1.9028
1041.160	2209.852	0.163	0.000	716.1	0.3292	4.37519E-4	8.9	230	1.777488E+11	60.051	1.9733
1046.200	2209.728	0.174	0.000	691.8	0.3263	4.41457E-4	7.5	233	1.777289E+11	60.234	2.0552
1051.240	2209.732	0.210	0.000	703.6	0.3232	4.45739E-4	8.8	229	1.777294E+11	60.275	1.9618
1056.260	2209.690	0.233	0.000	677.7	0.3257	4.42319E-4	8.6	229	1.777227E+11	60.579	2.0209
1061.300	2209.643	0.177	0.000	693.3	0.3239	4.44753E-4	9.1	237	1.777152E+11	60.757	2.0485
1066.320	2209.492	0.200	0.000	660.2	0.3183	4.52589E-4	8.4	227	1.776909E+11	60.961	2.0548
1071.360	2209.418	0.216	0.000	684.4	0.3195	4.50979E-4	8.8	227	1.776789E+11	61.083	2.0995
1076.381	2209.422	0.274	0.000	696.1	0.3125	4.61080E-4	8.9	234	1.776796E+11	61.254	2.1868
1081.401	2209.345	0.149	0.000	671.3	0.3199	4.50434E-4	9.3	237	1.776672E+11	61.472	2.2463
1086.440	2209.255	0.095	0.000	671.9	0.3158	4.56304E-4	8.4	234	1.776528E+11	61.631	2.2634
1091.460	2209.204	0.161	0.000	669.9	0.3135	4.59565E-4	8.3	230	1.776446E+11	61.841	2.2951
1096.500	2209.226	0.183	0.000	649.1	0.3175	4.53852E-4	9.1	226	1.776482E+11	62.069	2.3238
1101.520	2209.041	0.219	0.000	621.3	0.3154	4.56909E-4	8.5	227	1.776183E+11	62.215	2.3193
1106.540	2208.949	0.156	0.000	654.1	0.3105	4.64098E-4	9.7	222	1.776036E+11	62.338	2.3215
1111.580	2208.817	0.117	0.000	678.1	0.3067	4.69852E-4	8.4	236	1.775824E+11	62.602	2.2694
1116.600	2208.727	0.162	0.000	675.8	0.3035	4.74841E-4	8.8	206	1.775678E+11	62.739	2.2469
1121.620	2208.692	0.149	0.000	691.1	0.3022	4.76965E-4	8.6	212	1.775623E+11	63.108	2.2375
1126.640	2208.672	0.129	0.000	690.5	0.3032	4.75399E-4	9.0	237	1.775590E+11	63.311	2.2374
1131.681	2208.732	0.158	0.000	651.9	0.3029	4.75755E-4	8.3	206	1.775686E+11	63.558	2.1938
1136.700	2208.690	0.278	0.000	626.1	0.3035	4.74822E-4	7.8	234	1.775620E+11	63.614	2.1651
1141.740	2208.520	0.210	0.000	612.7	0.3049	4.72744E-4	8.8	234	1.775346E+11	63.618	2.0014
1146.761	2208.463	0.256	0.000	659.7	0.3036	4.74757E-4	8.2	237	1.775255E+11	63.754	1.9476
1151.780	2208.359	0.175	0.000	646.9	0.2982	4.83388E-4	9.0	215	1.775086E+11	63.681	1.8258
1156.821	2208.381	0.166	0.000	644.5	0.2934	4.91312E-4	8.6	211	1.775122E+11	63.816	1.8984
1161.841	2208.220	0.155	0.000	614.4	0.2974	4.84692E-4	8.3	209	1.774864E+11	64.034	1.9681
1166.880	2208.152	0.240	0.000	652.4	0.2891	4.98554E-4	8.8	215	1.774754E+11	64.197	1.9010
1171.920	2208.166	0.219	0.000	626.4	0.2947	4.89168E-4	8.8	205	1.774777E+11	64.305	1.8212
1176.960	2208.015	0.190	0.000	611.1	0.2912	4.95071E-4	8.3	209	1.774534E+11	64.492	1.7083
1182.000	2208.119	0.194	0.000	640.0	0.2893	4.98265E-4	8.2	212	1.774700E+11	64.559	1.6812
1187.040	2207.852	0.263	0.000	573.1	0.2922	4.93414E-4	8.9	202	1.774273E+11	64.630	1.6193
1192.080	2207.716	0.208	0.000	630.9	0.2850	5.05816E-4	8.3	206	1.774053E+11	64.775	1.6469
1197.120	2207.731	0.281	0.000	644.0	0.2842	5.07253E-4	8.4	209	1.774078E+11	64.970	1.6510
1202.161	2207.844	0.212	0.000	635.8	0.2814	5.12358E-4	8.5	211	1.774260E+11	65.100	1.7311
1207.200	2207.585	0.231	0.000	575.8	0.2844	5.06955E-4	8.5	206	1.773842E+11	65.335	1.8171
1212.240	2207.656	0.296	0.000	635.1	0.2806	5.13781E-4	8.5	212	1.773958E+11	65.499	1.8155
1217.260	2207.504	0.204	0.000	594.5	0.2831	5.09255E-4	8.3	209	1.773712E+11	65.644	1.8069
1222.280	2207.450	0.236	0.000	612.2	0.2802	5.14539E-4	8.8	208	1.773625E+11	65.986	1.8572
1227.300	2207.394	0.305	0.000	611.4	0.2781	5.18575E-4	8.6	209	1.773536E+11	66.126	1.8796
1232.340	2207.389	0.347	0.000	617.6	0.2774	5.19859E-4	9.4	215	1.773528E+11	66.357	1.9850
1237.360	2207.380	0.187	0.000	590.9	0.2761	5.22360E-4	8.1	211	1.773513E+11	66.577	2.0394
1242.380	2207.291	0.192	0.000	588.7	0.2792	5.16542E-4	9.1	215	1.773371E+11	66.651	1.9730
1247.420	2207.174	0.210	0.000	582.7	0.2742	5.25893E-4	7.9	190	1.773182E+11	66.858	2.0506
1254.421	2207.101	0.190	0.000	577.4	0.2706	5.33040E-4	8.7	185	1.773065E+11	66.981	1.7392
1259.460	2206.937	0.234	0.000	590.3	0.2693	5.35598E-4	8.6	190	1.772801E+11	67.075	1.6538
1264.480	2206.929	0.209	0.000	605.4	0.2653	5.43701E-4	9.0	187	1.772789E+11	67.177	1.6433
1269.500	2206.975	0.262	0.000	596.0	0.2680	5.38151E-4	8.5	190	1.772863E+11	67.367	1.6447
1274.541	2206.847	0.254	0.000	562.2	0.2670	5.40179E-4	8.2	187	1.772658E+11	67.468	1.7311
1279.580	2206.888	0.294	0.000	607.0	0.2662	5.41753E-4	8.3	194	1.772722E+11	67.676	1.7456
1284.621	2206.668	0.146	0.000	550.4	0.2665	5.41235E-4	9.1	188	1.772370E+11	67.841	1.8046
1289.660	2206.544	0.219	0.000	592.9	0.2643	5.45804E-4	9.4	193	1.772170E+11	67.965	1.8578
1294.680	2206.480	0.258	0.000	600.2	0.2626	5.49378E-4	9.0	191	1.772067E+11	68.176	1.8909
1299.720	2206.421	0.274	0.000	599.4	0.2601	5.54617E-4	8.9	193	1.771972E+11	68.382	1.9024
1304.760	2206.539	0.249	0.000	587.1	0.2619	5.50859E-4	8.6	188	1.772162E+11	68.552	1.9762
1309.780	2206.325	0.281	0.000	556.1	0.2633	5.47843E-4	8.2	193	1.771819E+11	68.818	2.0727
1314.800	2206.262	0.233	0.000	565.7	0.2565	5.62489E-4	8.7	181	1.771717E+11	69.053	2.0689
1319.820	2206.296	0.251	0.000	576.0	0.2556	5.64349E-4	9.2	188	1.771773E+11	69.248	2.1231
1324.840	2206.151	0.346	0.000	559.4	0.2596	5.55804E-4	8.6	191	1.771540E+11	69.431	2.1306
1329.860	2206.108	0.277	0.000	569.0	0.2551	5.65534E-4	8.6	188	1.771470E+11	69.630	2.2044
1334.900	2206.123	0.220	0.000	590.7	0.2555	5.64811E-4	8.5	194	1.771494E+11	69.839	2.2519
1339.940	2206.009	0.119	0.000	540.0	0.2551	5.65729E-4	8.8	185	1.771310E+11	69.964	2.2111
1344.961	2205.856	0.278	0.000	556.8	0.2511	5.74685E-4	9.4	190	1.771065E+11	70.137	2.1253
1350.001	2205.992	0.200	0.000	561.0	0.2513	5.74228E-4	8.9	185	1.771283E+11	70.330	2.1717
1355.020	2205.630	0.304	0.000	516.5	0.2532	5.69881E-4	9.4	184	1.770703E+11	70.499	2.1926
1360.060	2205.750	0.163	0.000	574.0	0.2513	5.74209E-4	8.9	188	1.770896E+11	70.704	2.2183
1365.100	2205.843	0.271	0.000	565.2	0.2490	5.79439E-4	8.7	194	1.771044E+11	70.985	2.1834
1370.139	2205.690	0.286	0.000	512.6	0.2501	5.76973E-4	8.6	188	1.770798E+11	71.265	2.1798
1375.160	2205.489	0.150	0.000	538.5	0.2480	5.82064E-4	7.9	171	1.770476E+11	71.452	2.1730
1380.180	2205.474	0.322	0.000	567.8	0.2454	5.88091E-4	8.2	172	1.770451E+11	71.733	2.1443
1385.200	2205.530	0.124	0.000	542.0	0.2452	5.88523E-4	8.9	162	1.770542E+11	71.808	2.1436
1390.240	2205.498	0.255	0.000	516.5	0.2517	5.73508E-4	8.5	187	1.770491E+11	72.008	2.0518
1395.260	2205.315	0.318	0.000	516.9	0.2376	6.07384E-4	8.4	165	1.770197E+11	72.130	2.0300
1400.280	2205.260	0.235	0.000	539.8	0.2403	6.00702E-4	8.4	165	1.770109E+11	72.345	1.9669
1405.320	2205.157	0.194	0.000	557.9	0.2421	5.96287E-4	9.0	173	1.769943E+11	72.504	1.9006
1410.360	2204.984	0.181	0.000	557.2	0.2386	6.05031E-4	8.6	173	1.769665E+11	72.518	1.9217
1415.380	2204.966	0.248	0.000	550.9	0.2369	6.09293E-4	8.2	162	1.769637E+11	72.514	1.7977
1420.420	2204.891	0.230	0.000	551.6	0.2374	6.08126E-4	8.1	168	1.769516E+11	72.631	1.7632
1425.460	2204.933	0.261	0.000	539.7	0.2415	5.97807E-4	8.4	162	1.769583E+11	72.737	1.6845
1430.500	2204.706	0.238	0.000	539.5	0.2360	6.11876E-4	9.3	168	1.769219E+11	72.964	1.7380
1435.520	2204.843	0.185	0.000	545.9	0.2351	6.14061E-4	8.1	165	1.769439E+11	72.978	1.7624
1440.560	2204.585	0.199	0.000	534.2	0.2359	6.12061E-4	8.4	171	1.769024E+11	73.402	1.8286
1445.580	2204.720	0.216	0.000	540.6	0.2372	6.08634E-4	8.8	162	1.769242E+11	73.362	1.8468
1450.621	2204.575	0.250	0.000	525.2	0.2364	6.10657E-4	8.5	168	1.769009E+11	73.488	1.7556
1455.660	2204.502	0.163	0.000	529.2	0.2380	6.06716E-4	8.1	166	1.768892E+11	73.586	1.8238
1460.700	2204.459	0.265	0.000	556.4	0.2327	6.20546E-4	7.7	173	1.768824E+11	73.699	1.7824
1465.720	2204.546	0.170	0.000	531.5	0.2314	6.23880E-4	8.4	168	1.768963E+11	73.879	1.7508
1470.740	2204.332	0.375	0.000	505.3	0.2337	6.17938E-4	7.8	168	1.768619E+11	74.101	1.8460
1475.780	2204.223	0.175	0.000	532.8	0.2304	6.26655E-4	8.6	171	1.768444E+11	74.235	1.8891
1480.800	2204.066	0.329	0.000	535.1	0.2272	6.35533E-4	8.6	168	1.768192E+11	74.368	1.9773
1485.820	2204.196	0.270	0.000	534.3	0.2291	6.30306E-4	9.1	167	1.768401E+11	74.637	2.0123
1490.860	2204.205	0.244	0.000	535.3	0.2261	6.38759E-4	8.3	173	1.768416E+11	74.870	2.0204
1495.900	2204.216	0.291	0.000	505.6	0.2285	6.31987E-4	8.6	168	1.768433E+11	75.023	2.0296
1500.940	2204.124	0.176	0.000	483.6	0.2295	6.29297E-4	8.0	166	1.768285E+11	75.304	2.0300
1505.980	2203.839	0.302	0.000	487.8	0.2251	6.41663E-4	8.6	162	1.767828E+11	75.553	2.1234
1511.020	2203.906	0.299	0.000	522.9	0.2280	6.33527E-4	8.5	168	1.767936E+11	75.731	2.1805
1516.060	2203.668	0.212	0.000	509.7	0.2283	6.32571E-4	8.7	168	1.767554E+11	75.912	2.2130
1521.080	2203.868	0.260	0.000	534.2	0.2250	6.41944E-4	8.1	172	1.767875E+11	76.035	2.1888
1526.101	2203.689	0.232	0.000	503.0	0.2221	6.50401E-4	8.6	172	1.767587E+11	76.293	2.2013
1531.121	2203.486	0.273	0.000	505.5	0.2251	6.41632E-4	8.6	144	1.767261E+11	76.406	2.1962
1536.160	2203.635	0.274	0.000	518.7	0.2213	6.52796E-4	7.5	166	1.767501E+11	76.619	2.2044
1541.201	2203.632	0.166	0.000	485.7	0.2235	6.46286E-4	7.7	161	1.767495E+11	76.807	2.2349
1546.220	2203.433	0.200	0.000	489.4	0.2213	6.52909E-4	8.3	167	1.767177E+11	77.071	2.2941
1551.241	2203.465	0.295	0.000	528.8	0.2190	6.59754E-4	9.2	173	1.767228E+11	77.352	2.2686
1556.280	2203.322	0.249	0.000	491.7	0.2217	6.51504E-4	9.1	167	1.766999E+11	77.626	2.1227
1561.320	2203.258	0.312	0.000	493.1	0.2210	6.53838E-4	8.5	162	1.766897E+11	77.774	2.1146
1566.360	2203.255	0.269	0.000	511.1	0.2200	6.56713E-4	8.9	171	1.766891E+11	77.969	2.1592
1571.400	2203.343	0.529	0.000	489.4	0.2197	6.57452E-4	7.7	165	1.767032E+11	77.999	2.1016
1576.420	2203.178	0.415	0.000	494.6	0.2194	6.58446E-4	9.3	173	1.766768E+11	78.040	2.0005
1581.440	2203.205	0.299	0.000	520.5	0.2196	6.57866E-4	8.2	173	1.766811E+11	78.155	1.8814
1586.481	2202.969	0.314	0.000	471.0	0.2225	6.49444E-4	8.6	147	1.766432E+11	78.208	1.8546
1591.501	2202.873	0.328	0.000	494.3	0.2206	6.55126E-4	8.4	145	1.766278E+11	78.240	1.9257
1596.540	2202.855	0.334	0.000	503.1	0.2129	6.78822E-4	9.1	168	1.766249E+11	78.359	1.8136
1601.580	2203.208	0.321	0.000	520.2	0.2185	6.61098E-4	9.3	150	1.766816E+11	78.559	1.8154
1606.600	2202.675	0.420	0.000	439.9	0.2187	6.60676E-4	8.9	150	1.765962E+11	78.739	1.6982
1611.641	2202.564	0.335	0.000	516.2	0.2174	6.64749E-4	9.0	150	1.765783E+11	78.870	1.6420
1616.680	2202.650	0.365	0.000	503.8	0.2147	6.72933E-4	8.3	147	1.765921E+11	79.056	1.6517
1621.701	2202.402	0.218	0.000	485.2	0.2129	6.78925E-4	8.1	144	1.765523E+11	79.163	1.5982
1626.720	2202.650	0.133	0.000	512.4	0.2148	6.72902E-4	8.2	150	1.765921E+11	79.335	1.7126
1631.760	2202.532	0.238	0.000	479.7	0.2093	6.90380E-4	9.0	150	1.765732E+11	79.523	1.7283
1636.800	2202.409	0.174	0.000	492.6	0.2165	6.67478E-4	8.0	173	1.765534E+11	79.675	1.7622
1641.840	2202.284	0.206	0.000	481.6	0.2134	6.77217E-4	7.8	144	1.765334E+11	79.833	1.8150
1646.880	2202.231	0.346	0.000	496.0	0.2101	6.88021E-4	8.6	149	1.765250E+11	80.028	1.7317
1651.900	2202.238	0.173	0.000	481.9	0.2083	6.93882E-4	9.1	143	1.765261E+11	80.207	1.8348
1656.940	2202.034	0.380	0.000	493.0	0.2098	6.88874E-4	8.9	150	1.764933E+11	80.341	1.8695
1661.961	2201.996	0.281	0.000	493.1	0.2065	6.99972E-4	8.3	146	1.764872E+11	80.501	1.8916
1666.980	2202.043	0.198	0.000	482.6	0.2099	6.88546E-4	7.9	143	1.764948E+11	80.716	1.9510
1672.020	2201.846	0.210	0.000	493.7	0.2065	6.99907E-4	7.9	150	1.764633E+11	80.890	1.9351
1677.040	2201.803	0.250	0.000	495.6	0.2083	6.93893E-4	8.5	150	1.764564E+11	81.130	2.0489
1682.080	2201.944	0.196	0.000	483.3	0.2058	7.02317E-4	7.6	143	1.764789E+11	81.298	2.1247
1687.121	2201.875	0.299	0.000	466.6	0.2078	6.95735E-4	8.1	146	1.764678E+11	81.607	2.1315
1692.141	2201.805	0.275	0.000	465.1	0.2086	6.93028E-4	8.3	143	1.764567E+11	81.767	2.1908
1697.160	2201.600	0.256	0.000	468.8	0.2071	6.98167E-4	9.2	145	1.764238E+11	81.957	2.2081
1702.180	2201.555	0.262	0.000	472.7	0.2046	7.06520E-4	9.1	141	1.764165E+11	82.145	2.2063
1707.200	2201.713	0.298	0.000	482.4	0.2090	6.91578E-4	7.8	149	1.764419E+11	82.282	2.2284
1712.220	2201.397	0.424	0.000	480.3	0.2068	6.99215E-4	8.7	150	1.763913E+11	82.520	2.2491
1717.260	2201.651	0.370	0.000	467.0	0.2054	7.03859E-4	9.3	141	1.764320E+11	82.705	2.2892
1722.300	2201.341	0.277	0.000	447.9	0.2072	6.97917E-4	8.3	148	1.763822E+11	82.877	2.3143
1727.340	2201.403	0.581	0.000	487.3	0.2037	7.09984E-4	8.3	150	1.763922E+11	83.080	2.2455
1732.360	2201.220	0.314	0.000	461.1	0.2028	7.13187E-4	8.4	146	1.763629E+11	83.212	2.2997
1737.400	2201.229	0.498	0.000	465.5	0.2021	7.15686E-4	7.7	141	1.763644E+11	83.527	2.2559
1742.420	2201.121	0.268	0.000	465.1	0.2044	7.07388E-4	8.0	146	1.763470E+11	83.901	2.2091
1747.460	2201.218	0.399	0.000	467.0	0.2031	7.12098E-4	9.6	144	1.763626E+11	83.974	2.1676
1752.500	2200.967	0.294	0.000	455.6	0.2068	6.99295E-4	7.8	149	1.763223E+11	83.998	2.0621
1757.540	2200.884	0.223	0.000	474.8	0.2001	7.22814E-4	8.3	149	1.763091E+11	84.216	2.0576
1762.560	2201.005	0.304	0.000	473.3	0.2034	7.10863E-4	9.2	148	1.763284E+11	84.291	2.0210
1767.580	2200.980	0.212	0.000	453.3	0.2061	7.01622E-4	8.5	147	1.763244E+11	84.405	1.9498
1772.600	2200.844	0.232	0.000	464.6	0.2000	7.23323E-4	8.9	150	1.763026E+11	84.535	1.7644
1777.620	2200.901	0.429	0.000	446.5	0.2006	7.20995E-4	8.9	141	1.763118E+11	84.702	1.6867
1782.660	2200.869	0.220	0.000	452.9	0.2000	7.23050E-4	8.1	150	1.763066E+11	84.620	1.6263
1787.681	2200.813	0.390	0.000	457.1	0.2053	7.04425E-4	8.9	150	1.762977E+11	84.763	1.6061
1792.720	2200.736	0.392	0.000	468.7	0.2028	7.13134E-4	7.5	149	1.762854E+11	84.797	1.6612
1797.760	2200.589	0.425	0.000	444.1	0.2028	7.13128E-4	9.0	149	1.762618E+11	85.199	1.7868
1802.800	2200.540	0.358	0.000	443.1	0.2025	7.14290E-4	8.9	140	1.762539E+11	85.196	1.8310
1807.820	2200.330	0.297	0.000	465.9	0.1966	7.35805E-4	8.2	144	1.762203E+11	85.385	1.7673
1812.860	2200.191	0.248	0.000	486.7	0.1971	7.34100E-4	8.6	147	1.761981E+11	85.571	1.8066
1817.880	2200.173	0.153	0.000	485.7	0.1980	7.30711E-4	8.8	147	1.761951E+11	85.779	1.7780
1822.901	2200.315	0.314	0.000	469.6	0.1948	7.42772E-4	8.0	138	1.762178E+11	85.940	1.8467
1827.920	2200.067	0.266	0.000	456.5	0.1971	7.34007E-4	8.4	142	1.761782E+11	86.091	1.8651
1832.960	2200.279	0.283	0.000	479.5	0.2010	7.19844E-4	8.8	145	1.762121E+11	86.277	1.8747
1837.980	2200.283	0.290	0.000	446.5	0.1976	7.32175E-4	8.9	144	1.762127E+11	86.480	1.9626
1843.000	2200.074	0.325	0.000	441.7	0.1974	7.32876E-4	8.9	144	1.761793E+11	86.715	2.0198
1848.020	2199.987	0.318	0.000	475.4	0.1973	7.33407E-4	8.0	146	1.761653E+11	86.950	2.1010
1853.060	2199.831	0.417	0.000	476.1	0.1950	7.42137E-4	8.4	145	1.761404E+11	87.094	2.1327
1858.081	2199.783	0.377	0.000	464.8	0.1946	7.43633E-4	8.9	138	1.761327E+11	87.302	2.1354
1863.120	2199.628	0.282	0.000	478.0	0.1988	7.28074E-4	9.2	145	1.761079E+11	87.509	2.2056
1868.161	2199.693	0.325	0.000	467.2	0.1956	7.39784E-4	7.3	138	1.761183E+11	87.675	2.2564
1873.180	2199.801	0.409	0.000	474.6	0.1986	7.28506E-4	8.5	145	1.761356E+11	87.899	2.2882
1878.220	2199.458	0.287	0.000	461.4	0.1968	7.35418E-4	9.1	145	1.760806E+11	88.053	2.2532
1883.241	2199.485	0.320	0.000	478.4	0.1971	7.34342E-4	9.3	138	1.760849E+11	88.364	2.1967
1888.260	2199.602	0.279	0.000	486.2	0.1956	7.39890E-4	8.0	141	1.761037E+11	88.608	2.2134
1893.300	2199.625	0.295	0.000	455.4	0.1967	7.35827E-4	8.1	136	1.761074E+11	88.976	2.2067
1898.321	2199.504	0.422	0.000	456.1	0.1959	7.38789E-4	8.1	144	1.760880E+11	89.051	2.2302
1903.361	2199.342	0.322	0.000	464.2	0.1954	7.40568E-4	8.7	141	1.760621E+11	89.195	2.1873
1908.380	2199.354	0.410	0.000	474.7	0.1940	7.45945E-4	8.1	139	1.760639E+11	89.271	2.1456
1913.400	2199.191	0.397	0.000	468.2	0.1904	7.60072E-4	8.4	140	1.760380E+11	89.471	2.0464
1918.440	2199.165	0.380	0.000	479.6	0.1882	7.69006E-4	8.0	139	1.760337E+11	89.609	2.0278
1923.460	2199.156	0.177	0.000	475.4	0.1954	7.40875E-4	8.6	141	1.760323E+11	89.371	1.9311
1928.500	2199.036	0.146	0.000	462.2	0.1946	7.43975E-4	8.1	138	1.760131E+11	89.425	1.8997
1933.540	2198.976	0.231	0.000	477.1	0.1928	7.50639E-4	9.1	142	1.760035E+11	89.575	1.9488
1938.580	2198.704	0.183	0.000	459.2	0.1923	7.52919E-4	8.7	117	1.759600E+11	89.691	1.8713
1943.620	2198.673	0.181	0.000	468.2	0.1967	7.35902E-4	8.7	140	1.759550E+11	89.920	1.9131
1948.641	2198.701	0.336	0.000	475.5	0.1895	7.63853E-4	7.5	142	1.759594E+11	90.071	1.9090
1953.680	2198.946	0.211	0.000	459.5	0.1923	7.52665E-4	9.1	136	1.759988E+11	90.294	1.8577
1958.720	2198.605	0.344	0.000	438.3	0.1970	7.34777E-4	8.0	143	1.759441E+11	90.484	1.9378
1963.760	2198.635	0.235	0.000	473.1	0.1926	7.51538E-4	8.3	143	1.759489E+11	90.693	1.9966
1968.800	2198.666	0.339	0.000	445.7	0.1894	7.64233E-4	9.5	137	1.759539E+11	90.953	2.0533
1973.820	2198.660	0.383	0.000	439.9	0.1958	7.39338E-4	7.8	140	1.759528E+11	91.105	2.0965
1978.840	2198.523	0.214	0.000	435.8	0.1963	7.37417E-4	8.7	142	1.759310E+11	91.319	2.0907
1983.880	2198.004	0.440	0.000	441.1	0.1906	7.59879E-4	8.4	138	1.758479E+11	91.484	2.0298
1988.920	2198.296	0.229	0.000	450.1	0.1955	7.40766E-4	7.9	141	1.758946E+11	91.668	2.0641
1993.960	2198.275	0.369	0.000	449.1	0.1915	7.56185E-4	9.0	138	1.758913E+11	91.837	2.1214
1998.980	2198.178	0.278	0.000	457.4	0.1913	7.57035E-4	8.8	142	1.758758E+11	92.048	2.1264
2004.020	2197.972	0.269	0.000	455.5	0.1898	7.63006E-4	8.7	140	1.758428E+11	92.307	2.1681
2009.060	2198.087	0.254	0.000	445.0	0.1899	7.62422E-4	8.2	133	1.758612E+11	92.491	2.1732
2014.100	2198.195	0.225	0.000	443.7	0.1923	7.53162E-4	7.9	134	1.758785E+11	92.761	2.2328
2019.120	2198.068	0.287	0.000	457.1	0.1924	7.52579E-4	7.9	143	1.758581E+11	92.974	2.2702
2024.160	2197.996	0.436	0.000	444.6	0.1880	7.70182E-4	8.4	117	1.758467E+11	93.108	2.2080
2029.180	2197.714	0.128	0.000	441.4	0.1907	7.59368E-4	7.4	136	1.758015E+11	93.279	2.1644
2034.200	2198.011	0.390	0.000	455.2	0.1942	7.45739E-4	8.1	117	1.758490E+11	93.201	1.9247
2039.220	2197.564	0.335	0.000	416.6	0.1921	7.54167E-4	9.0	112	1.757776E+11	93.294	1.9054
2044.240	2197.678	0.369	0.000	454.3	0.1899	7.62870E-4	8.2	134	1.757958E+11	93.405	1.8400
2049.260	2197.787	0.307	0.000	458.0	0.1932	7.49796E-4	8.0	141	1.758132E+11	93.494	1.7366
2054.280	2197.480	0.334	0.000	466.9	0.1938	7.47533E-4	8.9	143	1.757641E+11	93.641	1.6559
2059.300	2197.357	0.179	0.000	457.2	0.1886	7.68229E-4	9.0	113	1.757444E+11	93.764	1.6257
2064.340	2197.526	0.365	0.000	463.1	0.1931	7.50217E-4	8.3	140	1.757715E+11	93.821	1.6329
2069.380	2197.644	0.337	0.000	452.6	0.1894	7.64883E-4	8.1	139	1.757903E+11	93.898	1.6247
2074.420	2197.350	0.558	0.000	428.7	0.1942	7.46049E-4	8.9	119	1.757433E+11	94.052	1.6607
2079.460	2197.503	0.233	0.000	458.4	0.1861	7.78348E-4	8.6	137	1.757678E+11	94.383	1.6707
2084.480	2197.406	0.301	0.000	436.0	0.1912	7.57681E-4	8.6	143	1.757522E+11	94.590	1.7389
2089.520	2197.323	0.300	0.000	424.5	0.1891	7.66172E-4	8.3	138	1.757390E+11	94.732	1.7753
2094.540	2197.063	0.404	0.000	441.8	0.1898	7.63288E-4	8.0	141	1.756973E+11	94.886	1.7604
2099.580	2196.944	0.390	0.000	454.6	0.1931	7.50310E-4	7.5	138	1.756783E+11	95.031	1.8136
2104.600	2197.076	0.175	0.000	463.3	0.1908	7.59330E-4	8.9	141	1.756995E+11	95.171	1.8701
2109.621	2196.864	0.266	0.000	450.6	0.1903	7.61241E-4	8.3	141	1.756656E+11	95.478	1.9279
2114.660	2197.107	0.386	0.000	454.3	0.1844	7.85570E-4	8.5	113	1.757044E+11	95.732	2.0142
2119.700	2196.791	0.333	0.000	433.5	0.1934	7.49043E-4	8.0	143	1.756539E+11	95.990	2.1242
2124.720	2196.799	0.235	0.000	453.2	0.1892	7.65648E-4	8.1	117	1.756551E+11	96.217	2.2146
2129.761	2196.653	0.270	0.000	468.7	0.1906	7.60386E-4	8.2	143	1.756318E+11	96.493	2.2431
2134.781	2196.813	0.297	0.000	456.7	0.1916	7.56344E-4	8.2	139	1.756574E+11	96.654	2.2246
2139.800	2196.496	0.382	0.000	443.8	0.1934	7.49470E-4	8.1	142	1.756068E+11	96.869	2.2108
2144.841	2196.615	0.100	0.000	463.8	0.1919	7.54994E-4	8.0	120	1.756257E+11	97.119	2.2220
2149.880	2196.525	0.523	0.000	441.6	0.1940	7.46996E-4	9.1	136	1.756113E+11	97.314	2.2284
2154.921	2196.335	0.439	0.000	445.2	0.1935	7.48950E-4	8.3	113	1.755810E+11	97.608	2.1951
2159.960	2196.558	0.161	0.000	458.1	0.1889	7.67311E-4	8.1	136	1.756166E+11	97.696	2.0960
2164.980	2196.077	0.299	0.000	440.5	0.1895	7.64690E-4	9.0	142	1.755398E+11	97.985	2.0935
2170.000	2196.586	0.340	0.000	478.7	0.1895	7.64711E-4	9.3	143	1.756211E+11	97.911	1.9669
2175.020	2195.960	0.362	0.000	403.2	0.1938	7.47919E-4	8.7	138	1.755211E+11	97.735	1.9751
2180.060	2196.059	0.340	0.000	453.4	0.1846	7.85026E-4	8.2	134	1.755369E+11	97.871	2.0462
2185.100	2195.816	0.311	0.000	463.5	0.1939	7.47733E-4	7.8	143	1.754979E+11	97.993	2.0637
2190.120	2196.098	0.331	0.000	457.6	0.1935	7.49122E-4	8.2	141	1.755432E+11	98.132	1.9294
2195.141	2196.212	0.425	0.000	460.4	0.1945	7.45000E-4	8.1	143	1.755613E+11	98.383	1.8178
2200.160	2196.078	0.301	0.000	424.1	0.1933	7.49902E-4	8.8	120	1.755399E+11	98.467	1.7907
2205.181	2195.805	0.225	0.000	429.5	0.1919	7.55252E-4	8.4	140	1.754963E+11	98.701	1.9303
2210.220	2195.779	0.280	0.000	467.5	0.1897	7.64261E-4	8.7	143	1.754921E+11	98.904	1.9752
2215.240	2195.726	0.249	0.000	455.0	0.1922	7.54108E-4	7.8	141	1.754836E+11	99.149	2.0306
2220.280	2195.691	0.202	0.000	458.2	0.1895	7.65191E-4	9.0	120	1.754781E+11	99.388	2.1228
2225.320	2195.584	0.257	0.000	450.7	0.1910	7.59138E-4	8.4	139	1.754610E+11	99.483	2.1240
2230.340	2195.730	0.296	0.000	467.0	0.1972	7.35083E-4	9.3	143	1.754842E+11	99.735	2.1942
2235.360	2195.844	0.442	0.000	449.7	0.1931	7.50889E-4	8.4	143	1.755026E+11	99.866	2.2143
2240.400	2195.483	0.372	0.000	403.0	0.1927	7.52209E-4	9.5	137	1.754448E+11	100.213	2.2477
2245.421	2195.361	0.245	0.000	459.4	0.1904	7.61484E-4	8.6	143	1.754252E+11	100.421	2.2261
2250.441	2195.268	0.247	0.000	461.1	0.1887	7.68388E-4	9.3	141	1.754104E+11	100.691	2.1951
2255.480	2195.379	0.315	0.000	453.7	0.1924	7.53689E-4	7.2	138	1.754282E+11	100.951	2.1734
2260.520	2195.179	0.447	0.000	469.4	0.1908	7.59971E-4	9.0	143	1.753962E+11	101.200	2.1483
2265.540	2195.112	0.241	0.000	478.5	0.1927	7.52591E-4	8.1	143	1.753855E+11	101.158	2.3000
2270.580	2195.120	0.422	0.000	456.4	0.1904	7.61416E-4	8.5	137	1.753868E+11	101.460	2.1925
2275.600	2195.062	0.225	0.000	443.0	0.1916	7.56695E-4	8.0	134	1.753775E+11	101.671	2.1673
2280.620	2195.083	0.217	0.000	479.4	0.1960	7.39942E-4	9.0	143	1.753809E+11	101.725	2.0451
2285.660	2194.986	0.379	0.000	443.8	0.1930	7.51514E-4	8.7	139	1.753653E+11	101.786	2.0112
2290.700	2194.945	0.350	0.000	467.3	0.1935	7.49423E-4	8.7	143	1.753588E+11	101.671	1.9892
2295.720	2194.780	0.386	0.000	442.0	0.1993	7.27525E-4	7.6	138	1.753324E+11	101.727	1.9194
2300.740	2194.821	0.311	0.000	462.0	0.1927	7.52640E-4	8.5	141	1.753390E+11	101.838	1.8634
2305.780	2194.793	0.329	0.000	446.7	0.1924	7.53672E-4	9.1	137	1.753346E+11	101.969	1.8089
2310.820	2194.548	0.207	0.000	445.0	0.1931	7.51010E-4	9.6	139	1.752953E+11	101.994	1.7819
2315.860	2194.764	0.358	0.000	463.4	0.1971	7.35908E-4	7.7	142	1.753298E+11	102.146	1.7514
2320.881	2194.805	0.213	0.000	441.6	0.1925	7.53380E-4	7.8	141	1.753364E+11	102.328	1.8005
2325.900	2194.285	0.304	0.000	426.0	0.2002	7.24599E-4	8.3	142	1.752534E+11	102.630	1.9154
2330.940	2194.466	0.263	0.000	458.9	0.1932	7.50787E-4	8.3	138	1.752823E+11	102.856	2.0115
2335.980	2194.617	0.279	0.000	464.5	0.1987	7.30011E-4	7.8	143	1.753063E+11	103.119	2.0478
2341.020	2194.355	0.341	0.000	424.5	0.1944	7.46086E-4	8.2	139	1.752645E+11	103.345	2.0659
2346.040	2194.188	0.305	0.000	458.3	0.1953	7.42696E-4	8.8	141	1.752379E+11	103.448	2.0622
2351.061	2194.139	0.384	0.000	460.6	0.1981	7.32216E-4	7.1	141	1.752301E+11	103.736	2.1578
2356.100	2194.028	0.134	0.000	466.6	0.1991	7.28853E-4	8.4	143	1.752123E+11	103.709	2.0186
2361.140	2194.199	0.344	0.000	478.6	0.1967	7.37354E-4	9.6	143	1.752397E+11	104.071	2.0807
2366.161	2194.043	0.264	0.000	451.5	0.1991	7.28846E-4	8.3	143	1.752147E+11	104.264	2.1503
2371.200	2193.910	0.284	0.000	458.0	0.1957	7.41400E-4	8.5	139	1.751935E+11	104.415	2.1237
2376.220	2193.908	0.096	0.000	472.2	0.1982	7.31994E-4	7.7	143	1.751932E+11	104.636	2.2048
2381.240	2193.839	0.326	0.000	464.8	0.1996	7.26988E-4	7.5	142	1.751822E+11	104.810	2.2099
2386.260	2193.865	0.291	0.000	460.8	0.1988	7.29826E-4	8.5	139	1.751863E+11	105.135	2.2709
2391.280	2193.920	0.183	0.000	464.0	0.1976	7.34230E-4	8.7	143	1.751951E+11	105.378	2.3829
2396.300	2193.506	0.264	0.000	438.8	0.1992	7.28595E-4	8.3	140	1.751290E+11	105.786	2.3822
2401.320	2193.667	0.253	0.000	467.6	0.2002	7.24860E-4	8.1	139	1.751546E+11	105.880	2.3571
2406.340	2193.430	0.334	0.000	458.6	0.1978	7.33718E-4	8.4	138	1.751169E+11	106.047	2.3012
2411.361	2193.675	0.166	0.000	468.6	0.2030	7.14697E-4	8.1	139	1.751559E+11	106.112	2.1581
2416.380	2193.589	0.169	0.000	467.0	0.2047	7.08964E-4	8.5	143	1.751422E+11	106.038	2.1182
2421.420	2193.492	0.382	0.000	462.1	0.2039	7.11662E-4	7.9	143	1.751267E+11	105.990	1.7473
2426.441	2193.266	0.315	0.000	456.1	0.1996	7.27264E-4	8.9	138	1.750907E+11	105.919	1.4139
2431.480	2193.102	0.307	0.000	462.4	0.2017	7.19571E-4	8.9	134	1.750644E+11	106.072	1.3460
2436.520	2193.264	0.216	0.000	481.7	0.2013	7.21085E-4	8.3	143	1.750902E+11	106.172	1.3081
2441.540	2193.147	0.172	0.000	455.5	0.2016	7.19844E-4	7.8	134	1.750717E+11	106.360	1.5946
2446.580	2193.295	0.323	0.000	468.2	0.2039	7.11767E-4	9.1	138	1.750953E+11	106.550	1.7151
2451.600	2193.171	0.200	0.000	454.4	0.2056	7.05973E-4	8.5	143	1.750755E+11	106.779	1.7440
2456.620	2193.071	0.276	0.000	462.4	0.2021	7.18323E-4	9.0	141	1.750595E+11	106.904	1.8487
2461.660	2192.923	0.237	0.000	462.3	0.2026	7.16377E-4	7.9	138	1.750359E+11	107.052	1.8221
2466.680	2192.877	0.252	0.000	467.5	0.2023	7.17435E-4	8.8	134	1.750286E+11	107.323	1.9282
2471.700	2192.945	0.249	0.000	481.6	0.2065	7.02955E-4	9.1	143	1.750394E+11	107.589	2.0195
2476.720	2192.877	0.318	0.000	458.6	0.2081	6.97627E-4	7.8	140	1.750285E+11	107.837	2.0273
2481.760	2192.579	0.289	0.000	459.9	0.2026	7.16558E-4	8.6	136	1.749810E+11	107.977	2.0298
2486.800	2192.829	0.240	0.000	485.4	0.2093	6.93589E-4	8.4	142	1.750209E+11	108.169	1.9933
2491.820	2192.500	0.140	0.000	453.6	0.2038	7.12209E-4	8.7	137	1.749683E+11	108.361	2.1221
2496.840	2192.568	0.252	0.000	485.0	0.2063	7.03676E-4	8.8	140	1.749793E+11	108.563	2.1763
2501.860	2192.283	0.260	0.000	474.6	0.2110	6.88169E-4	8.5	140	1.749337E+11	108.711	2.1507
2506.900	2192.411	0.194	0.000	488.0	0.2082	6.97373E-4	9.0	143	1.749542E+11	108.916	2.2087
2511.940	2192.547	0.184	0.000	483.7	0.2060	7.04776E-4	8.5	142	1.749758E+11	109.101	2.2278
2516.960	2192.340	0.299	0.000	463.1	0.2062	7.04239E-4	8.4	140	1.749429E+11	109.293	2.2296
2521.980	2192.326	0.193	0.000	494.8	0.2084	6.96722E-4	9.2	143	1.749406E+11	109.616	2.2602
2527.020	2192.250	0.252	0.000	475.2	0.2065	7.03121E-4	8.3	138	1.749284E+11	109.963	2.1793
2532.040	2192.062	0.305	0.000	502.0	0.2108	6.88969E-4	8.7	143	1.748985E+11	109.997	2.1252
2537.060	2192.189	0.167	0.000	490.7	0.2094	6.93501E-4	8.5	141	1.749187E+11	110.265	2.1265
2542.080	2192.170	0.360	0.000	464.9	0.2076	6.99398E-4	8.0	134	1.749157E+11	110.156	2.0120
2547.100	2191.993	0.203	0.000	477.9	0.2123	6.83881E-4	8.4	143	1.748874E+11	110.204	1.9365
2552.120	2191.958	0.148	0.000	483.9	0.2164	6.71197E-4	8.5	140	1.748818E+11	110.106	1.8707
2557.160	2191.857	0.158	0.000	480.1	0.2118	6.85690E-4	8.3	138	1.748657E+11	110.266	1.7679
2562.200	2191.899	0.375	0.000	495.1	0.2119	6.85422E-4	8.3	143	1.748724E+11	110.392	1.7965
2567.240	2191.674	0.252	0.000	477.7	0.2116	6.86452E-4	8.2	139	1.748366E+11	110.602	1.8017
2572.261	2191.961	0.205	0.000	488.9	0.2095	6.93015E-4	8.8	136	1.748823E+11	110.682	1.7528
2577.280	2191.685	0.199	0.000	447.8	0.2123	6.84107E-4	8.9	138	1.748383E+11	110.915	1.7935
2582.320	2191.700	0.228	0.000	474.7	0.2134	6.80436E-4	7.9	134	1.748406E+11	111.042	1.8028
2587.340	2191.481	0.315	0.000	476.8	0.2168	6.69998E-4	9.4	160	1.748057E+11	111.236	1.8610
2592.360	2191.558	0.126	0.000	494.0	0.2188	6.63836E-4	8.8	160	1.748180E+11	111.606	2.0195
2597.380	2191.448	0.292	0.000	486.5	0.2177	6.67248E-4	9.1	141	1.748005E+11	111.921	2.0822
2602.401	2191.257	0.231	0.000	507.6	0.2149	6.75862E-4	8.0	143	1.747700E+11	112.098	2.1323
2607.440	2191.310	0.230	0.000	499.2	0.2192	6.62646E-4	7.9	160	1.747785E+11	112.395	2.1525
2612.461	2191.312	0.253	0.000	500.9	0.2157	6.73501E-4	8.5	163	1.747787E+11	112.701	2.1350
2617.500	2191.071	0.250	0.000	513.6	0.2168	6.70105E-4	8.5	165	1.747404E+11	113.006	2.2177
2622.540	2191.175	0.164	0.000	494.5	0.2216	6.55653E-4	9.5	134	1.747569E+11	113.169	2.2615
2627.580	2190.912	0.223	0.000	491.6	0.2201	6.60018E-4	9.1	159	1.747150E+11	113.450	2.1286
2632.600	2191.048	0.254	0.000	497.3	0.2219	6.54562E-4	8.5	157	1.747366E+11	113.432	2.0743
2637.620	2190.920	0.206	0.000	520.2	0.2160	6.72709E-4	7.9	143	1.747163E+11	113.344	1.9393
2642.641	2190.773	0.194	0.000	495.4	0.2215	6.56053E-4	8.4	155	1.746928E+11	113.448	1.9070
2647.680	2190.711	0.203	0.000	520.7	0.2194	6.62384E-4	8.8	165	1.746829E+11	113.422	1.8389
2652.720	2190.914	0.338	0.000	509.8	0.2243	6.47664E-4	8.7	160	1.747153E+11	113.518	1.6984
2657.760	2190.898	0.194	0.000	483.8	0.2243	6.47779E-4	8.2	137	1.747128E+11	113.721	1.8247
2662.780	2190.806	0.200	0.000	489.1	0.2247	6.46698E-4	8.3	163	1.746981E+11	113.845	1.7036
2667.820	2190.787	0.244	0.000	484.8	0.2240	6.48726E-4	8.8	158	1.746951E+11	113.903	1.7807
2672.860	2190.485	0.246	0.000	488.1	0.2249	6.46249E-4	8.5	162	1.746469E+11	114.073	1.7319
2677.880	2190.650	0.263	0.000	499.1	0.2277	6.38138E-4	7.9	153	1.746731E+11	114.348	1.8030
2682.920	2190.636	0.224	0.000	527.9	0.2279	6.37703E-4	8.7	165	1.746710E+11	114.429	1.8112
2687.960	2190.757	0.236	0.000	511.4	0.2241	6.48382E-4	7.9	159	1.746903E+11	114.688	1.8541
2692.980	2190.459	0.203	0.000	486.3	0.2271	6.40005E-4	7.8	165	1.746427E+11	115.023	1.9558
2698.001	2190.455	0.143	0.000	533.5	0.2258	6.43457E-4	8.6	162	1.746421E+11	115.239	1.9890
2703.020	2190.326	0.219	0.000	531.6	0.2264	6.41994E-4	7.8	165	1.746216E+11	115.414	2.1150
2708.040	2190.268	0.381	0.000	538.4	0.2263	6.42062E-4	8.8	160	1.746123E+11	115.554	2.0455
2713.080	2190.224	0.290	0.000	531.4	0.2275	6.38830E-4	9.1	157	1.746053E+11	115.813	2.1449
2718.100	2190.105	0.199	0.000	546.9	0.2259	6.43461E-4	7.8	164	1.745863E+11	115.974	2.2169
2723.120	2189.984	0.267	0.000	537.3	0.2292	6.34291E-4	8.6	155	1.745671E+11	116.129	2.2127
2728.140	2189.891	0.120	0.000	574.9	0.2298	6.32629E-4	8.8	165	1.745522E+11	116.332	2.2081
2733.161	2189.907	0.233	0.000	572.4	0.2293	6.33967E-4	8.7	165	1.745547E+11	116.599	2.1042
2738.200	2189.910	0.150	0.000	549.8	0.2316	6.27711E-4	8.2	158	1.745551E+11	116.871	2.1836
2743.220	2189.830	0.172	0.000	548.5	0.2281	6.37379E-4	8.6	159	1.745424E+11	117.315	2.1948
2748.240	2189.949	0.274	0.000	542.6	0.2316	6.27589E-4	7.4	155	1.745615E+11	117.505	2.1852
2753.260	2189.847	0.199	0.000	512.7	0.2313	6.28407E-4	8.1	154	1.745452E+11	117.425	2.1214
2758.300	2189.613	0.282	0.000	530.3	0.2372	6.12785E-4	8.7	158	1.745079E+11	117.504	1.9761
2763.320	2189.570	0.212	0.000	559.7	0.2335	6.22494E-4	8.6	158	1.745010E+11	117.789	2.0261
2768.361	2189.544	0.208	0.000	563.2	0.2355	6.17286E-4	8.5	159	1.744968E+11	117.798	1.9822
2773.380	2189.497	0.088	0.000	568.5	0.2310	6.29263E-4	8.4	162	1.744893E+11	117.775	1.9317
2778.400	2189.341	0.294	0.000	575.6	0.2348	6.19283E-4	8.2	165	1.744645E+11	117.876	1.8740
2783.440	2189.469	0.230	0.000	582.6	0.2327	6.24849E-4	7.2	163	1.744849E+11	117.856	1.8040
2788.480	2189.412	0.231	0.000	547.1	0.2344	6.20118E-4	8.5	157	1.744758E+11	117.959	1.7820
2793.520	2189.240	0.211	0.000	542.0	0.2352	6.18246E-4	9.5	153	1.744484E+11	118.195	1.8543
2798.540	2189.112	0.083	0.000	576.1	0.2378	6.11404E-4	9.3	160	1.744280E+11	118.438	1.9134
2803.580	2189.194	0.185	0.000	569.9	0.2412	6.02850E-4	7.9	155	1.744411E+11	118.697	1.8769
2808.600	2189.088	0.221	0.000	578.8	0.2401	6.05532E-4	8.7	165	1.744243E+11	118.949	1.8912
2813.640	2189.160	0.288	0.000	572.2	0.2399	6.05993E-4	7.5	158	1.744357E+11	119.142	1.9974
2818.660	2188.897	0.229	0.000	551.2	0.2404	6.05033E-4	8.3	159	1.743937E+11	119.313	2.1150
2823.680	2188.945	0.149	0.000	580.2	0.2400	6.05944E-4	8.3	157	1.744014E+11	119.560	2.2142
2828.719	2188.872	0.117	0.000	574.3	0.2399	6.06053E-4	8.8	158	1.743897E+11	119.793	2.2553
2833.761	2188.926	0.250	0.000	584.3	0.2447	5.94361E-4	8.9	162	1.743983E+11	120.012	2.3266
2838.800	2188.850	0.158	0.000	541.8	0.2491	5.83723E-4	8.5	178	1.743862E+11	120.309	2.2972
2843.820	2188.682	0.219	0.000	552.3	0.2464	5.90339E-4	7.9	181	1.743595E+11	120.673	2.3522
2848.840	2188.568	0.341	0.000	567.1	0.2485	5.85267E-4	8.2	158	1.743413E+11	120.701	2.2286
2853.860	2188.658	0.136	0.000	578.2	0.2458	5.91740E-4	8.6	160	1.743556E+11	120.968	2.3145
2858.900	2188.515	0.213	0.000	550.2	0.2505	5.80540E-4	8.2	177	1.743329E+11	120.978	1.9599
2863.920	2188.600	0.204	0.000	566.2	0.2477	5.87241E-4	8.5	176	1.743465E+11	121.392	2.2998
2868.940	2188.456	0.225	0.000	547.2	0.2492	5.83573E-4	9.4	178	1.743234E+11	121.489	3.0067
2873.980	2188.414	0.241	0.000	565.2	0.2480	5.86512E-4	8.2	178	1.743168E+11	121.352	3.2227
2879.000	2188.440	0.184	0.000	556.7	0.2488	5.84572E-4	8.5	172	1.743210E+11	121.445	3.1355
2884.021	2188.245	0.150	0.000	541.6	0.2527	5.75548E-4	8.1	176	1.742899E+11	121.543	2.1608
2889.060	2188.353	0.141	0.000	585.7	0.2519	5.77476E-4	8.0	182	1.743071E+11	121.657	1.5511
2894.080	2188.254	0.186	0.000	549.7	0.2590	5.61665E-4	9.0	183	1.742913E+11	121.759	1.5759
2899.120	2188.239	0.223	0.000	566.0	0.2543	5.72060E-4	8.4	182	1.742889E+11	122.079	1.6798
2904.141	2187.961	0.214	0.000	549.8	0.2565	5.67125E-4	8.8	178	1.742447E+11	122.221	1.8345
2909.179	2187.957	0.267	0.000	589.1	0.2540	5.72789E-4	8.8	178	1.742440E+11	122.473	1.9126
2914.200	2187.969	0.229	0.000	616.4	0.2511	5.79415E-4	8.9	183	1.742459E+11	122.671	1.9978
2919.240	2187.852	0.166	0.000	588.2	0.2568	5.66473E-4	8.0	183	1.742274E+11	122.970	2.0491
2924.280	2187.870	0.172	0.000	580.1	0.2559	5.68522E-4	8.4	175	1.742302E+11	123.196	2.0976
2929.320	2187.783	0.268	0.000	571.9	0.2616	5.56244E-4	8.8	177	1.742162E+11	123.315	2.1162
2934.340	2187.680	0.253	0.000	605.2	0.2539	5.73003E-4	8.8	183	1.741998E+11	123.657	2.1547
2939.379	2187.666	0.220	0.000	607.1	0.2565	5.67294E-4	8.2	183	1.741977E+11	123.877	2.0956
2944.400	2187.670	0.172	0.000	589.5	0.2595	5.60640E-4	9.2	180	1.741982E+11	124.204	2.1410
2949.420	2187.630	0.136	0.000	590.4	0.2593	5.61102E-4	8.5	183	1.741919E+11	124.525	2.2137
2954.461	2187.621	0.193	0.000	593.8	0.2636	5.52053E-4	9.0	183	1.741905E+11	124.582	2.0522
2959.480	2187.679	0.320	0.000	565.8	0.2622	5.54850E-4	8.0	178	1.741998E+11	124.703	2.0211
2964.520	2187.451	0.190	0.000	543.4	0.2611	5.57394E-4	9.4	180	1.741634E+11	124.541	1.8728
2969.541	2187.428	0.171	0.000	583.4	0.2615	5.56427E-4	9.2	177	1.741598E+11	124.595	1.8551
2974.560	2187.344	0.230	0.000	570.5	0.2658	5.47405E-4	9.5	176	1.741464E+11	124.527	1.9046
2979.580	2187.208	0.213	0.000	605.9	0.2668	5.45386E-4	8.6	183	1.741247E+11	124.670	1.7245
2984.620	2187.207	0.182	0.000	609.7	0.2667	5.45578E-4	8.8	182	1.741246E+11	124.856	1.8314
2989.660	2187.186	0.245	0.000	587.2	0.2620	5.55574E-4	9.1	175	1.741212E+11	124.995	1.7458
2994.681	2187.140	0.150	0.000	588.8	0.2639	5.51391E-4	8.5	178	1.741139E+11	125.244	1.8659
2999.701	2187.047	0.190	0.000	587.4	0.2663	5.46554E-4	8.0	178	1.740990E+11	125.501	1.9564
3004.720	2186.955	0.253	0.000	595.4	0.2636	5.52067E-4	8.7	177	1.740844E+11	125.810	1.9806
3009.760	2186.884	0.202	0.000	611.4	0.2721	5.34965E-4	8.7	182	1.740732E+11	125.983	2.1697
3014.799	2186.795	0.127	0.000	622.8	0.2680	5.43209E-4	9.0	183	1.740590E+11	126.171	2.2307
3019.821	2186.841	0.138	0.000	604.9	0.2676	5.43855E-4	7.9	172	1.740662E+11	126.439	2.2506
3024.840	2186.639	0.184	0.000	588.1	0.2762	5.26964E-4	8.8	197	1.740341E+11	126.653	2.2683
3029.880	2186.614	0.178	0.000	625.5	0.2682	5.42754E-4	9.3	178	1.740302E+11	126.839	2.2485
3034.900	2186.705	0.198	0.000	617.1	0.2710	5.37192E-4	8.6	176	1.740447E+11	127.093	2.2630
3039.921	2186.696	0.098	0.000	588.1	0.2750	5.29239E-4	8.0	178	1.740433E+11	127.590	2.2556
3044.960	2186.696	0.181	0.000	578.0	0.2790	5.21795E-4	9.4	200	1.740432E+11	127.635	2.2826
3050.000	2186.544	0.151	0.000	576.8	0.2834	5.13733E-4	8.7	206	1.740191E+11	127.784	2.2638
3055.040	2186.437	0.171	0.000	600.3	0.2802	5.19497E-4	8.9	203	1.740019E+11	127.827	2.2191
3060.080	2186.377	0.243	0.000	604.1	0.2791	5.21704E-4	7.4	197	1.739925E+11	128.035	2.1638
3065.121	2186.292	0.205	0.000	599.3	0.2800	5.19999E-4	8.6	193	1.739789E+11	128.119	2.0294
3070.160	2186.244	0.154	0.000	617.5	0.2795	5.20857E-4	8.4	178	1.739713E+11	128.085	1.9400
3075.200	2186.150	0.236	0.000	621.9	0.2791	5.21723E-4	8.2	202	1.739563E+11	128.123	1.8263
3080.220	2186.203	0.118	0.000	628.3	0.2822	5.15873E-4	9.0	200	1.739647E+11	128.082	1.7228
3085.240	2186.076	0.164	0.000	604.0	0.2809	5.18307E-4	8.3	200	1.739446E+11	128.301	1.7409
3090.281	2185.993	0.196	0.000	620.7	0.2838	5.13153E-4	9.0	197	1.739313E+11	128.267	1.6600
3095.301	2185.965	0.208	0.000	623.1	0.2867	5.07978E-4	9.4	197	1.739269E+11	128.530	1.7689
3100.320	2185.869	0.234	0.000	623.9	0.2830	5.14508E-4	9.0	199	1.739116E+11	128.706	1.8335
3105.340	2185.829	0.164	0.000	658.3	0.2840	5.12699E-4	7.8	206	1.739053E+11	128.892	1.8031
3110.380	2185.767	0.214	0.000	623.9	0.2839	5.12993E-4	9.1	196	1.738954E+11	129.218	1.9526
3115.421	2185.713	0.235	0.000	627.9	0.2878	5.06032E-4	9.0	196	1.738868E+11	129.566	2.0231
3120.460	2185.574	0.146	0.000	627.9	0.2866	5.08225E-4	8.8	196	1.738647E+11	129.729	2.1114
3125.480	2185.533	0.187	0.000	642.4	0.2865	5.08444E-4	9.0	193	1.738582E+11	129.883	2.0635
3130.500	2185.694	0.277	0.000	664.3	0.2862	5.08812E-4	9.0	205	1.738838E+11	130.091	2.1636
3135.520	2185.511	0.160	0.000	619.8	0.2933	4.96581E-4	9.5	206	1.738546E+11	130.302	2.2311
3140.560	2185.435	0.288	0.000	634.3	0.2907	5.01117E-4	7.5	200	1.738425E+11	130.467	2.3060
3145.600	2185.488	0.256	0.000	635.4	0.2929	4.97315E-4	8.7	197	1.738510E+11	130.846	2.3286
3150.620	2185.363	0.115	0.000	604.8	0.2955	4.92853E-4	8.8	199	1.738312E+11	131.197	2.2613
3155.660	2185.275	0.236	0.000	639.2	0.2942	4.95159E-4	9.3	203	1.738171E+11	131.379	2.1279
3160.700	2185.137	0.237	0.000	640.5	0.2901	5.02154E-4	9.0	197	1.737951E+11	131.075	1.9424
3165.720	2185.100	0.130	0.000	658.2	0.2924	4.98230E-4	8.6	197	1.737892E+11	131.050	1.9339
3170.740	2185.161	0.207	0.000	652.1	0.2958	4.92476E-4	9.3	197	1.737990E+11	131.150	2.0278
3175.780	2184.997	0.280	0.000	623.0	0.2954	4.93225E-4	9.2	197	1.737729E+11	131.218	1.9776
3180.800	2184.942	0.140	0.000	649.7	0.2983	4.88373E-4	8.0	196	1.737641E+11	131.508	1.9426
3185.840	2184.897	0.173	0.000	651.1	0.3011	4.83799E-4	9.2	196	1.737570E+11	131.732	1.7868
3190.861	2184.801	0.138	0.000	688.4	0.2971	4.90447E-4	9.1	200	1.737417E+11	131.895	1.7971
3195.880	2184.840	0.142	0.000	697.5	0.2948	4.94247E-4	8.6	200	1.737479E+11	132.145	1.9541
3200.920	2184.795	0.235	0.000	666.5	0.2979	4.89114E-4	8.7	197	1.737407E+11	132.384	1.9645
3205.960	2184.821	0.164	0.000	665.3	0.3000	4.85655E-4	9.1	218	1.737449E+11	132.576	2.1370
3211.000	2184.666	0.190	0.000	642.1	0.3077	4.73585E-4	8.5	222	1.737202E+11	132.757	2.0984
3216.040	2184.578	0.279	0.000	676.2	0.2992	4.86979E-4	8.5	199	1.737063E+11	132.964	2.2030
3221.061	2184.579	0.106	0.000	677.2	0.3021	4.82319E-4	8.3	215	1.737064E+11	133.151	2.2598
3226.100	2184.372	0.174	0.000	678.0	0.3066	4.75304E-4	8.2	203	1.736734E+11	133.351	2.2575
3231.120	2184.296	0.209	0.000	706.1	0.3028	4.81296E-4	9.4	197	1.736614E+11	133.683	2.3234
3236.160	2184.267	0.246	0.000	721.8	0.3031	4.80870E-4	8.8	222	1.736567E+11	133.798	2.2977
3241.180	2184.309	0.174	0.000	705.9	0.3078	4.73371E-4	8.3	218	1.736635E+11	134.280	2.3334
3246.221	2184.305	0.332	0.000	695.9	0.3049	4.77909E-4	8.9	225	1.736629E+11	134.540	2.2711
3251.240	2184.121	0.148	0.000	668.3	0.3092	4.71369E-4	8.3	218	1.736335E+11	134.446	2.1163
3256.280	2184.117	0.140	0.000	709.2	0.3101	4.69898E-4	8.9	218	1.736329E+11	134.395	1.9989
3261.320	2184.015	0.185	0.000	691.8	0.3106	4.69270E-4	8.8	218	1.736166E+11	134.238	1.8727
3266.340	2184.072	0.229	0.000	718.3	0.3061	4.76146E-4	8.7	222	1.736258E+11	134.182	1.8865
3271.380	2183.994	0.202	0.000	671.3	0.3180	4.58344E-4	8.8	218	1.736134E+11	134.461	1.9364
3276.400	2183.834	0.115	0.000	689.9	0.3143	4.63686E-4	8.2	222	1.735880E+11	134.634	1.9086
3281.420	2183.874	0.236	0.000	714.5	0.3115	4.67888E-4	8.7	218	1.735942E+11	134.825	1.8325
3286.460	2183.824	0.157	0.000	694.7	0.3160	4.61311E-4	8.9	222	1.735863E+11	135.005	1.8006
3291.481	2183.715	0.179	0.000	695.6	0.3132	4.65361E-4	9.2	221	1.735690E+11	135.305	1.8874
3296.521	2183.686	0.158	0.000	704.7	0.3165	4.60610E-4	8.7	218	1.735645E+11	135.407	1.9589
3301.540	2183.690	0.230	0.000	705.5	0.3129	4.65919E-4	9.0	218	1.735651E+11	135.484	1.8508
3306.580	2183.510	0.140	0.000	692.7	0.3141	4.64126E-4	8.4	222	1.735364E+11	135.749	1.9538
3311.620	2183.459	0.142	0.000	726.0	0.3148	4.63156E-4	9.2	218	1.735284E+11	135.819	1.9675
3316.661	2183.438	0.132	0.000	723.5	0.3170	4.59872E-4	8.3	218	1.735249E+11	136.264	2.1542
3321.680	2183.368	0.231	0.000	709.3	0.3163	4.60922E-4	8.9	217	1.735138E+11	136.522	2.2489
3326.700	2183.344	0.173	0.000	730.9	0.3147	4.63286E-4	9.1	224	1.735100E+11	136.711	2.2581
3331.721	2183.314	0.155	0.000	742.6	0.3189	4.57158E-4	9.0	225	1.735052E+11	136.896	2.3128
3336.760	2183.242	0.251	0.000	729.5	0.3206	4.54738E-4	8.5	225	1.734939E+11	137.091	2.3038
3341.780	2183.202	0.168	0.000	713.8	0.3249	4.48764E-4	8.5	222	1.734875E+11	137.351	2.3316
3346.800	2183.043	0.082	0.000	720.8	0.3219	4.53012E-4	8.5	225	1.734622E+11	137.462	2.3523
3351.840	2182.925	0.160	0.000	760.1	0.3178	4.58866E-4	9.1	225	1.734435E+11	137.745	2.3127
3356.880	2183.021	0.197	0.000	769.3	0.3180	4.58489E-4	8.3	225	1.734587E+11	138.072	2.3381
3361.920	2182.895	0.127	0.000	698.2	0.3266	4.46472E-4	8.6	217	1.734387E+11	138.401	2.2630
3366.940	2182.913	0.163	0.000	733.4	0.3236	4.50679E-4	9.3	218	1.734416E+11	138.562	2.1858
3371.960	2183.002	0.152	0.000	710.3	0.3248	4.48930E-4	8.9	222	1.734557E+11	138.509	2.0979
3377.000	2182.784	0.178	0.000	643.6	0.3376	4.31907E-4	8.8	239	1.734211E+11	138.309	1.8933
3382.041	2182.688	0.117	0.000	718.6	0.3330	4.37994E-4	9.0	222	1.734058E+11	138.371	1.9402
3387.080	2182.595	0.110	0.000	736.8	0.3299	4.42028E-4	8.7	243	1.733910E+11	138.655	1.8706
3392.120	2182.595	0.157	0.000	752.8	0.3274	4.45443E-4	10.2	222	1.733910E+11	138.611	1.8949
3397.161	2182.596	0.166	0.000	740.4	0.3320	4.39299E-4	8.4	225	1.733912E+11	138.590	1.8744
3402.200	2182.439	0.180	0.000	720.4	0.3355	4.34706E-4	9.3	246	1.733662E+11	138.864	1.7969
3407.220	2182.393	0.207	0.000	769.4	0.3270	4.46013E-4	8.5	225	1.733589E+11	139.129	1.8957
3412.240	2182.242	0.107	0.000	751.4	0.3331	4.37861E-4	8.6	225	1.733350E+11	139.248	1.7736
3417.280	2182.302	0.147	0.000	772.0	0.3311	4.40479E-4	8.1	242	1.733444E+11	139.527	1.9113
3422.300	2182.273	0.163	0.000	726.6	0.3372	4.32504E-4	9.3	239	1.733398E+11	139.898	2.0206
3427.341	2182.192	0.139	0.000	731.6	0.3386	4.30746E-4	9.1	246	1.733270E+11	140.144	2.0832
3432.360	2182.061	0.180	0.000	735.6	0.3361	4.34032E-4	8.8	222	1.733062E+11	140.309	2.2069
3437.380	2182.062	0.204	0.000	756.2	0.3343	4.36347E-4	8.6	239	1.733063E+11	140.529	2.2096
3442.400	2181.993	0.214	0.000	733.6	0.3364	4.33645E-4	9.1	236	1.732954E+11	140.679	2.2388
3447.420	2181.843	0.210	0.000	747.0	0.3363	4.33807E-4	8.7	239	1.732716E+11	141.124	2.2952
3452.441	2181.894	0.193	0.000	770.9	0.3384	4.31159E-4	8.2	238	1.732796E+11	141.492	2.2145
3457.479	2181.808	0.137	0.000	737.3	0.3405	4.28460E-4	7.9	239	1.732660E+11	141.838	2.2022
3462.520	2181.778	0.159	0.000	767.8	0.3389	4.30541E-4	8.9	246	1.732612E+11	141.575	2.0979
3467.560	2181.690	0.116	0.000	742.9	0.3396	4.29654E-4	8.5	239	1.732473E+11	141.674	1.9508
3472.580	2181.582	0.154	0.000	752.6	0.3408	4.28072E-4	9.7	238	1.732301E+11	141.672	1.9507
3477.620	2181.563	0.186	0.000	772.9	0.3406	4.28335E-4	8.4	239	1.732270E+11	141.722	1.9625
3482.640	2181.558	0.149	0.000	758.6	0.3401	4.28969E-4	7.7	238	1.732262E+11	141.698	1.8868
3487.661	2181.405	0.138	0.000	735.0	0.3434	4.24965E-4	9.4	235	1.732021E+11	141.928	1.8693
3492.700	2181.383	0.188	0.000	777.2	0.3384	4.31270E-4	9.3	238	1.731985E+11	141.954	1.7529
3497.740	2181.397	0.106	0.000	766.7	0.3459	4.21852E-4	8.8	239	1.732007E+11	142.148	1.6900
3502.760	2181.320	0.206	0.000	739.5	0.3463	4.21418E-4	8.4	239	1.731886E+11	142.266	1.7909
3507.800	2181.222	0.188	0.000	751.5	0.3454	4.22533E-4	9.0	239	1.731729E+11	142.594	1.8392
3512.820	2181.150	0.098	0.000	773.4	0.3441	4.24069E-4	8.5	242	1.731616E+11	142.789	1.8781
3517.841	2181.108	0.183	0.000	780.7	0.3479	4.19532E-4	8.6	243	1.731549E+11	143.085	1.9687
3522.880	2181.017	0.180	0.000	765.4	0.3482	4.19131E-4	8.7	238	1.731403E+11	143.286	1.9665
3527.900	2181.047	0.141	0.000	771.6	0.3492	4.17904E-4	8.9	231	1.731452E+11	143.531	2.0983
3532.941	2180.970	0.208	0.000	742.3	0.3523	4.14327E-4	8.4	236	1.731330E+11	143.807	2.1692
3537.980	2180.866	0.085	0.000	757.4	0.3509	4.15946E-4	8.7	239	1.731165E+11	144.035	2.2682
3543.000	2180.772	0.126	0.000	780.9	0.3503	4.16630E-4	9.3	239	1.731014E+11	144.336	2.2934
3548.040	2180.806	0.231	0.000	805.9	0.3492	4.18040E-4	8.2	245	1.731069E+11	144.915	2.2288
3553.061	2180.694	0.166	0.000	758.3	0.3529	4.13670E-4	9.6	239	1.730892E+11	144.863	2.2819
3558.080	2180.691	0.116	0.000	770.7	0.3529	4.13662E-4	9.7	236	1.730886E+11	144.661	2.1515
3563.120	2180.659	0.140	0.000	756.7	0.3525	4.14064E-4	9.2	259	1.730835E+11	144.546	2.1783
3568.141	2180.643	0.136	0.000	746.6	0.3555	4.10559E-4	8.7	239	1.730810E+11	144.606	2.1370
3573.160	2180.510	0.238	0.000	723.7	0.3632	4.01958E-4	8.8	239	1.730598E+11	144.788	1.9715
3578.200	2180.512	0.168	0.000	747.5	0.3568	4.09110E-4	8.5	231	1.730602E+11	144.955	1.9656
3583.240	2180.443	0.215	0.000	730.1	0.3610	4.04366E-4	8.6	236	1.730492E+11	145.058	1.7357
3588.260	2180.228	0.130	0.000	734.8	0.3628	4.02436E-4	8.8	235	1.730152E+11	145.338	1.7573
3593.280	2180.224	0.207	0.000	823.6	0.3530	4.13612E-4	8.8	245	1.730146E+11	145.374	1.7363
3598.300	2180.188	0.125	0.000	785.8	0.3608	4.04609E-4	9.1	259	1.730088E+11	145.777	1.8921
3603.340	2180.100	0.140	0.000	773.1	0.3621	4.03272E-4	8.5	235	1.729948E+11	146.024	2.0127
3608.360	2180.139	0.120	0.000	795.4	0.3592	4.06484E-4	8.7	238	1.730011E+11	146.226	2.0958
3613.401	2180.045	0.187	0.000	745.4	0.3641	4.00995E-4	8.9	255	1.729862E+11	146.500	2.2394
3618.420	2179.945	0.205	0.000	778.7	0.3597	4.05990E-4	8.7	239	1.729703E+11	146.737	2.1950
3623.460	2179.958	0.199	0.000	795.3	0.3621	4.03251E-4	9.2	260	1.729723E+11	147.236	2.2517
3628.480	2179.913	0.160	0.000	765.2	0.3677	3.97154E-4	9.3	262	1.729651E+11	147.564	2.2035
3633.520	2179.748	0.228	0.000	766.4	0.3690	3.95752E-4	8.7	265	1.729390E+11	147.452	2.1373
3638.540	2179.794	0.150	0.000	807.5	0.3652	3.99911E-4	8.8	262	1.729462E+11	147.237	2.0500
3643.560	2179.741	0.111	0.000	748.8	0.3685	3.96309E-4	10.0	255	1.729379E+11	147.096	2.0033
3648.580	2179.608	0.177	0.000	745.4	0.3674	3.97513E-4	8.6	253	1.729167E+11	147.136	2.0076
3653.620	2179.613	0.176	0.000	796.8	0.3651	3.99989E-4	8.7	261	1.729176E+11	147.368	2.0096
3661.260	2179.521	0.180	0.000	748.0	0.3732	3.91361E-4	9.6	258	1.729030E+11	148.550	2.2373
3666.280	2179.402	0.190	0.000	774.4	0.3691	3.95664E-4	8.2	261	1.728841E+11	148.778	2.2384
3671.300	2179.311	0.126	0.000	801.9	0.3694	3.95374E-4	8.4	262	1.728696E+11	148.715	2.1247
3676.340	2179.282	0.166	0.000	810.6	0.3708	3.93903E-4	8.7	260	1.728650E+11	148.560	2.0284
3681.380	2179.201	0.155	0.000	806.8	0.3680	3.96972E-4	8.7	262	1.728522E+11	148.519	1.8820
3686.419	2179.178	0.161	0.000	820.1	0.3636	4.01764E-4	9.2	262	1.728485E+11	148.611	1.9502
3691.440	2179.046	0.162	0.000	803.9	0.3712	3.93503E-4	8.7	262	1.728275E+11	148.601	1.8656
3696.460	2179.043	0.188	0.000	838.6	0.3718	3.92893E-4	8.5	264	1.728271E+11	148.854	1.8455
3701.480	2179.054	0.158	0.000	815.1	0.3703	3.94437E-4	9.1	262	1.728289E+11	149.116	1.8455
3706.520	2178.981	0.172	0.000	770.3	0.3778	3.86619E-4	9.2	255	1.728173E+11	149.491	1.8720
3711.540	2178.924	0.151	0.000	799.7	0.3750	3.89575E-4	9.1	264	1.728083E+11	149.684	1.9585
3716.580	2178.864	0.110	0.000	791.3	0.3774	3.87084E-4	8.9	258	1.727987E+11	149.849	1.9524
3721.620	2178.858	0.135	0.000	803.3	0.3759	3.88644E-4	9.1	262	1.727977E+11	150.052	2.0376
3726.640	2178.743	0.151	0.000	765.9	0.3811	3.83404E-4	8.8	255	1.727795E+11	150.246	2.1192
3731.680	2178.631	0.127	0.000	824.7	0.3765	3.88016E-4	8.5	269	1.727617E+11	150.585	2.2711
3736.720	2178.608	0.172	0.000	820.3	0.3733	3.91445E-4	8.7	256	1.727581E+11	151.067	2.2344
3741.760	2178.603	0.150	0.000	802.2	0.3788	3.85720E-4	8.3	253	1.727573E+11	151.307	2.1837
3746.780	2178.470	0.131	0.000	797.7	0.3806	3.83917E-4	9.5	263	1.727362E+11	151.402	2.2317
3751.820	2178.463	0.175	0.000	824.2	0.3753	3.89350E-4	7.9	259	1.727351E+11	151.321	2.0662
3756.860	2178.441	0.137	0.000	801.2	0.3826	3.81876E-4	8.5	259	1.727317E+11	151.284	2.0145
3761.880	2178.344	0.187	0.000	790.2	0.3830	3.81519E-4	9.3	262	1.727163E+11	151.043	1.9603
3766.920	2178.268	0.159	0.000	813.7	0.3803	3.84270E-4	9.2	262	1.727042E+11	151.188	2.0227
3771.940	2178.227	0.174	0.000	823.0	0.3825	3.82062E-4	8.5	264	1.726977E+11	151.360	1.9813
3776.980	2178.138	0.104	0.000	818.5	0.3777	3.86883E-4	9.0	263	1.726836E+11	151.644	1.9225
3782.020	2178.106	0.106	0.000	831.7	0.3837	3.80829E-4	8.6	264	1.726785E+11	151.939	1.8783
3787.040	2178.006	0.113	0.000	820.3	0.3829	3.81652E-4	9.1	264	1.726627E+11	152.200	1.8837
3792.080	2177.970	0.112	0.000	812.6	0.3784	3.86195E-4	8.7	257	1.726570E+11	152.360	2.0169
3797.119	2177.929	0.097	0.000	810.4	0.3849	3.79747E-4	8.2	259	1.726504E+11	152.535	2.0922
3802.140	2177.941	0.131	0.000	794.0	0.3886	3.76117E-4	9.4	276	1.726523E+11	152.889	2.2346
3807.160	2177.876	0.150	0.000	771.5	0.3894	3.75289E-4	9.3	259	1.726420E+11	153.142	2.2061
3812.201	2177.769	0.152	0.000	785.6	0.3946	3.70376E-4	8.7	285	1.726250E+11	153.646	2.1598
3817.220	2177.796	0.164	0.000	812.0	0.3896	3.75120E-4	9.0	263	1.726294E+11	153.727	2.1673
3822.240	2177.708	0.147	0.000	783.9	0.3898	3.75016E-4	9.0	289	1.726154E+11	153.527	1.9035
3827.260	2177.574	0.173	0.000	785.3	0.3970	3.68234E-4	9.2	283	1.725941E+11	153.727	1.9890
3832.281	2177.574	0.077	0.000	828.6	0.3837	3.80990E-4	8.9	262	1.725941E+11	153.483	1.8302
3837.320	2177.578	0.130	0.000	800.8	0.3918	3.73116E-4	9.1	284	1.725948E+11	153.645	1.8798
3842.360	2177.444	0.101	0.000	762.1	0.3982	3.67071E-4	9.0	280	1.725736E+11	153.757	1.8568
3847.399	2177.444	0.134	0.000	828.4	0.3903	3.74571E-4	9.4	290	1.725735E+11	153.744	1.7428
3852.440	2177.373	0.127	0.000	780.8	0.3930	3.72012E-4	8.3	261	1.725623E+11	154.016	1.8517
3857.460	2177.318	0.094	0.000	776.2	0.3951	3.70027E-4	9.4	275	1.725536E+11	154.250	1.8536
3862.500	2177.284	0.176	0.000	778.4	0.3957	3.69434E-4	9.1	276	1.725482E+11	154.653	1.8839
3867.520	2177.150	0.155	0.000	780.6	0.3996	3.65838E-4	9.0	284	1.725270E+11	154.841	1.8743
3872.540	2177.134	0.152	0.000	837.8	0.3915	3.73475E-4	9.1	270	1.725244E+11	155.048	1.9416
3877.560	2177.108	0.154	0.000	789.5	0.3975	3.67856E-4	8.6	278	1.725202E+11	155.324	2.0199
3882.580	2177.003	0.154	0.000	789.1	0.3972	3.68098E-4	8.9	283	1.725037E+11	155.843	2.1565
3887.620	2176.949	0.187	0.000	800.0	0.3991	3.66376E-4	9.0	278	1.724952E+11	156.049	2.0190
3892.660	2176.854	0.152	0.000	805.6	0.3960	3.69266E-4	9.0	280	1.724800E+11	155.900	2.0492
3897.680	2176.925	0.200	0.000	842.6	0.3954	3.69757E-4	9.0	290	1.724913E+11	155.479	1.9881
3902.720	2176.774	0.135	0.000	757.5	0.4056	3.60513E-4	9.2	281	1.724673E+11	155.602	2.0355
3907.740	2176.675	0.186	0.000	801.7	0.4004	3.65227E-4	9.1	279	1.724517E+11	155.796	2.0425
3912.760	2176.688	0.145	0.000	829.5	0.3946	3.70576E-4	9.4	281	1.724538E+11	156.003	1.8249
3917.780	2176.598	0.172	0.000	780.1	0.4013	3.64404E-4	8.4	275	1.724394E+11	156.339	1.9248
3922.820	2176.557	0.151	0.000	804.5	0.4008	3.64850E-4	8.9	279	1.724330E+11	156.691	1.9592
3927.840	2176.472	0.181	0.000	806.0	0.4006	3.65113E-4	8.5	283	1.724196E+11	156.853	2.0888
3932.860	2176.379	0.153	0.000	825.3	0.3996	3.65974E-4	9.1	285	1.724048E+11	157.067	2.1310
3937.900	2176.362	0.162	0.000	832.2	0.4015	3.64321E-4	8.9	281	1.724020E+11	157.143	2.0036
3942.920	2176.347	0.121	0.000	820.9	0.4012	3.64552E-4	9.0	285	1.723997E+11	157.445	2.1295
3947.940	2176.182	0.136	0.000	794.8	0.4051	3.61092E-4	8.9	281	1.723736E+11	157.833	2.1794
3952.981	2176.184	0.143	0.000	861.2	0.3978	3.67662E-4	8.7	278	1.723739E+11	158.258	2.0908
3958.000	2176.132	0.195	0.000	852.0	0.4005	3.65250E-4	9.4	287	1.723656E+11	158.139	2.0210
3963.041	2176.114	0.215	0.000	830.6	0.4021	3.63805E-4	9.1	277	1.723629E+11	157.932	1.9680
3968.080	2176.044	0.127	0.000	827.2	0.4032	3.62788E-4	8.4	285	1.723518E+11	157.982	1.9146
3973.100	2175.983	0.177	0.000	821.7	0.4059	3.60377E-4	9.4	279	1.723420E+11	157.975	1.8823
3978.140	2175.929	0.120	0.000	833.1	0.4043	3.61823E-4	10.2	281	1.723335E+11	157.972	1.7152
3983.180	2175.875	0.183	0.000	823.2	0.4050	3.61235E-4	8.8	276	1.723249E+11	158.231	1.7456
3988.220	2175.839	0.133	0.000	818.7	0.4079	3.58655E-4	8.3	275	1.723192E+11	158.491	1.8248
3993.241	2175.666	0.084	0.000	818.4	0.4025	3.63521E-4	8.6	280	1.722918E+11	158.958	1.9463
3998.261	2175.682	0.147	0.000	872.8	0.4004	3.65370E-4	9.3	281	1.722944E+11	159.123	1.9978
4003.280	2175.582	0.158	0.000	832.5	0.4069	3.59541E-4	9.0	279	1.722785E+11	159.382	2.0796
4008.300	2175.523	0.133	0.000	861.9	0.4030	3.63078E-4	9.3	283	1.722692E+11	159.633	2.2351
4013.340	2175.464	0.140	0.000	865.6	0.4010	3.64915E-4	8.9	283	1.722599E+11	159.809	2.2145
4018.380	2175.404	0.074	0.000	856.4	0.4023	3.63672E-4	9.1	278	1.722503E+11	160.390	2.2518
4023.420	2175.398	0.264	0.000	863.7	0.4035	3.62618E-4	9.1	281	1.722493E+11	160.607	2.0948
4028.460	2175.300	0.102	0.000	832.2	0.4096	3.57242E-4	9.2	280	1.722338E+11	160.769	2.1802
4033.500	2175.252	0.074	0.000	847.2	0.4040	3.62215E-4	8.8	276	1.722262E+11	160.746	2.1144
4038.540	2175.211	0.113	0.000	854.8	0.4065	3.59950E-4	9.7	283	1.722197E+11	160.271	1.9846
4043.580	2175.131	0.157	0.000	853.9	0.4067	3.59794E-4	9.7	286	1.722071E+11	160.280	1.9148
4048.600	2175.063	0.102	0.000	850.8	0.4047	3.61632E-4	8.2	279	1.721963E+11	160.445	1.9383
4053.640	2175.104	0.134	0.000	858.4	0.4079	3.58750E-4	8.9	280	1.722028E+11	160.717	1.9424
4058.680	2174.954	0.095	0.000	807.7	0.4141	3.53458E-4	9.2	303	1.721791E+11	161.053	1.9061
4063.720	2174.954	0.165	0.000	856.2	0.4056	3.60868E-4	9.7	279	1.721791E+11	161.306	1.8704
4068.740	2174.870	0.186	0.000	862.1	0.4070	3.59632E-4	9.2	290	1.721658E+11	161.512	1.8510
4073.781	2174.845	0.162	0.000	845.8	0.4091	3.57732E-4	9.3	280	1.721618E+11	161.716	1.9913
4078.801	2174.803	0.157	0.000	825.4	0.4171	3.50868E-4	9.0	300	1.721552E+11	161.993	2.2118
4083.840	2174.754	0.119	0.000	837.9	0.4185	3.49765E-4	9.0	309	1.721475E+11	162.430	2.3333
4088.880	2174.587	0.215	0.000	804.7	0.4180	3.50203E-4	9.4	277	1.721210E+11	162.777	2.2045
4093.900	2174.562	0.163	0.000	875.9	0.4076	3.59156E-4	9.4	284	1.721171E+11	162.532	2.0998
4098.920	2174.518	0.119	0.000	850.2	0.4118	3.55461E-4	10.0	280	1.721101E+11	162.449	1.9655
4103.940	2174.503	0.141	0.000	841.0	0.4122	3.55163E-4	8.9	278	1.721077E+11	162.409	2.0026
4108.960	2174.388	0.091	0.000	836.4	0.4162	3.51696E-4	9.9	308	1.720895E+11	162.477	1.9524
4114.000	2174.333	0.194	0.000	856.0	0.4092	3.57719E-4	8.9	280	1.720808E+11	162.754	1.8400
4119.041	2174.315	0.163	0.000	863.5	0.4085	3.58343E-4	9.4	284	1.720780E+11	162.785	1.8785
4124.080	2174.296	0.157	0.000	845.3	0.4135	3.54048E-4	8.2	286	1.720749E+11	163.002	1.8847
4129.120	2174.191	0.100	0.000	800.8	0.4213	3.47469E-4	9.4	274	1.720583E+11	163.305	1.8692
4134.161	2174.205	0.213	0.000	834.4	0.4199	3.48689E-4	9.6	299	1.720606E+11	163.643	1.9242
4139.200	2174.037	0.169	0.000	806.0	0.4261	3.43578E-4	9.8	305	1.720339E+11	163.858	1.9077
4144.240	2173.975	0.116	0.000	866.6	0.4178	3.50444E-4	8.7	305	1.720242E+11	164.075	2.0851
4149.281	2173.914	0.128	0.000	857.6	0.4151	3.52703E-4	10.2	278	1.720144E+11	164.217	2.0893
4154.300	2173.905	0.147	0.000	872.4	0.4154	3.52525E-4	10.0	306	1.720131E+11	164.503	2.2035
4159.320	2173.711	0.094	0.000	821.9	0.4180	3.50359E-4	9.2	272	1.719824E+11	164.856	2.2569
4164.340	2173.682	0.125	0.000	893.7	0.4077	3.59213E-4	8.4	277	1.719778E+11	165.301	2.3065
4169.360	2173.717	0.135	0.000	877.0	0.4115	3.55886E-4	8.9	276	1.719833E+11	165.139	2.0793
4174.380	2173.686	0.193	0.000	824.8	0.4216	3.47362E-4	9.4	296	1.719784E+11	165.180	2.0173
4179.420	2173.597	0.170	0.000	837.2	0.4187	3.49771E-4	9.9	287	1.719643E+11	164.971	1.8945
4184.440	2173.521	0.090	0.000	846.5	0.4212	3.47705E-4	9.1	304	1.719522E+11	164.975	1.8791
4189.480	2173.466	0.202	0.000	868.8	0.4225	3.46641E-4	9.3	309	1.719436E+11	165.056	1.9501
4194.500	2173.409	0.175	0.000	846.9	0.4228	3.46424E-4	9.4	300	1.719346E+11	165.391	1.8830
4199.540	2173.411	0.171	0.000	844.4	0.4223	3.46837E-4	9.6	300	1.719349E+11	165.609	2.0792
4204.580	2173.359	0.200	0.000	800.8	0.4304	3.40280E-4	8.6	297	1.719267E+11	165.817	1.8683
4209.600	2173.225	0.134	0.000	813.3	0.4276	3.42561E-4	9.7	304	1.719054E+11	166.197	1.8544
4214.620	2173.220	0.153	0.000	851.8	0.4233	3.46021E-4	9.4	300	1.719047E+11	166.421	1.8803
4219.660	2173.096	0.148	0.000	827.7	0.4273	3.42774E-4	9.4	304	1.718850E+11	166.574	1.9578
4224.700	2173.045	0.121	0.000	854.6	0.4205	3.48350E-4	8.8	298	1.718769E+11	166.917	2.1471
4229.740	2173.007	0.113	0.000	858.5	0.4219	3.47219E-4	9.3	300	1.718710E+11	167.384	2.1141
4234.760	2172.944	0.169	0.000	855.5	0.4232	3.46135E-4	9.5	304	1.718611E+11	167.560	2.0128
4239.780	2172.902	0.123	0.000	863.9	0.4224	3.46802E-4	9.5	286	1.718544E+11	167.637	2.0057
4244.820	2172.839	0.121	0.000	839.0	0.4274	3.42767E-4	8.6	298	1.718444E+11	167.561	1.9320
4249.840	2172.762	0.155	0.000	850.9	0.4233	3.46060E-4	9.8	300	1.718321E+11	167.317	1.8307
4254.860	2172.742	0.187	0.000	878.4	0.4207	3.48219E-4	9.2	288	1.718291E+11	167.397	1.7911
4259.900	2172.636	0.103	0.000	840.5	0.4285	3.41891E-4	9.4	300	1.718123E+11	167.368	1.6185
4264.921	2172.566	0.124	0.000	868.5	0.4233	3.46148E-4	8.7	300	1.718012E+11	167.486	1.6565
4269.960	2172.570	0.170	0.000	867.6	0.4231	3.46323E-4	8.8	298	1.718018E+11	167.846	1.8365
4274.980	2172.500	0.134	0.000	837.7	0.4278	3.42525E-4	9.4	300	1.717908E+11	168.103	1.8641
4280.000	2172.422	0.154	0.000	847.8	0.4297	3.41003E-4	9.4	302	1.717784E+11	168.455	1.9869
4285.020	2172.352	0.179	0.000	851.8	0.4263	3.43746E-4	8.8	299	1.717674E+11	168.686	1.9880
4290.060	2172.335	0.104	0.000	876.4	0.4229	3.46461E-4	9.7	307	1.717647E+11	168.916	1.9786
4295.100	2172.251	0.237	0.000	848.2	0.4266	3.43462E-4	9.4	305	1.717514E+11	169.094	2.0781
4300.120	2172.151	0.128	0.000	859.2	0.4265	3.43618E-4	9.8	303	1.717357E+11	169.345	2.1699
4305.160	2172.118	0.197	0.000	874.5	0.4226	3.46761E-4	8.8	300	1.717303E+11	169.631	2.2491
4310.180	2172.097	0.129	0.000	867.1	0.4237	3.45840E-4	9.4	302	1.717270E+11	169.982	2.3089
4315.200	2172.044	0.215	0.000	837.5	0.4306	3.40315E-4	8.8	300	1.717187E+11	170.418	2.2726
4320.220	2171.946	0.107	0.000	838.1	0.4317	3.39523E-4	8.9	302	1.717031E+11	170.293	2.1352
4325.261	2171.780	0.137	0.000	852.6	0.4304	3.40511E-4	8.8	297	1.716770E+11	170.140	1.9904
4330.301	2171.821	0.182	0.000	909.0	0.4186	3.50089E-4	8.9	279	1.716834E+11	169.956	1.8505
4335.320	2171.774	0.190	0.000	861.3	0.4265	3.43684E-4	9.9	302	1.716760E+11	170.109	1.9972
4340.360	2171.674	0.167	0.000	853.6	0.4266	3.43568E-4	8.8	300	1.716602E+11	170.034	1.8791
4345.400	2171.629	0.140	0.000	870.2	0.4282	3.42282E-4	9.8	298	1.716530E+11	170.443	1.9279
4350.420	2171.572	0.116	0.000	882.8	0.4252	3.44708E-4	9.5	308	1.716440E+11	170.738	1.9079
4355.440	2171.523	0.191	0.000	864.2	0.4300	3.40858E-4	9.3	300	1.716364E+11	171.113	1.9068
4360.480	2171.399	0.114	0.000	873.3	0.4274	3.43020E-4	10.0	307	1.716167E+11	171.232	2.0803
4365.501	2171.381	0.133	0.000	903.8	0.4222	3.47191E-4	9.2	303	1.716138E+11	171.554	2.1024
4370.520	2171.338	0.181	0.000	869.1	0.4295	3.41346E-4	10.9	298	1.716071E+11	171.931	2.1712
4375.541	2171.263	0.157	0.000	878.9	0.4293	3.41519E-4	10.0	307	1.715951E+11	172.274	2.2400
4380.580	2171.200	0.120	0.000	904.4	0.4260	3.44161E-4	9.4	309	1.715852E+11	172.427	2.0878
4385.620	2171.239	0.165	0.000	887.4	0.4257	3.44385E-4	9.5	304	1.715915E+11	172.436	2.0029
4390.660	2171.114	0.136	0.000	847.4	0.4334	3.38253E-4	9.3	309	1.715716E+11	172.482	2.0166
4395.680	2171.074	0.127	0.000	871.3	0.4298	3.41125E-4	10.1	304	1.715653E+11	172.406	1.9037
4400.720	2170.965	0.145	0.000	858.6	0.4280	3.42600E-4	8.5	281	1.715481E+11	172.319	1.8408
4405.740	2170.922	0.144	0.000	892.7	0.4244	3.45514E-4	9.9	303	1.715413E+11	172.385	1.8854
4410.761	2170.877	0.123	0.000	887.4	0.4252	3.44831E-4	9.3	304	1.715343E+11	172.523	1.9574
4415.799	2170.828	0.161	0.000	871.5	0.4305	3.40599E-4	9.2	300	1.715264E+11	172.737	1.8579
4420.840	2170.767	0.164	0.000	881.1	0.4301	3.40936E-4	9.4	307	1.715169E+11	173.121	1.8865
4425.860	2170.689	0.164	0.000	861.8	0.4308	3.40363E-4	8.8	296	1.715045E+11	173.477	1.8693
4430.900	2170.658	0.176	0.000	884.0	0.4285	3.42242E-4	9.8	300	1.714995E+11	173.635	1.9904
4435.920	2170.660	0.213	0.000	896.2	0.4327	3.38900E-4	9.3	309	1.714999E+11	173.912	2.1605
4440.960	2170.498	0.089	0.000	844.9	0.4367	3.35798E-4	8.8	307	1.714742E+11	174.220	2.2283
4446.001	2170.500	0.154	0.000	891.7	0.4266	3.43793E-4	9.4	300	1.714746E+11	174.742	2.1656
4451.020	2170.424	0.154	0.000	852.7	0.4341	3.37846E-4	9.6	299	1.714627E+11	174.728	2.0643
4456.060	2170.396	0.125	0.000	859.1	0.4323	3.39289E-4	9.7	297	1.714582E+11	174.484	1.9179
4466.280	2170.251	0.144	0.000	826.7	0.4438	3.30456E-4	9.5	330	1.714353E+11	174.591	1.9107
4471.320	2170.155	0.164	0.000	863.7	0.4369	3.35743E-4	9.2	303	1.714201E+11	174.602	2.0706
4476.360	2170.186	0.174	0.000	872.9	0.4325	3.39159E-4	9.2	297	1.714251E+11	174.698	2.0711
4481.380	2170.047	0.154	0.000	825.1	0.4425	3.31492E-4	9.1	300	1.714030E+11	175.008	2.0523
4486.420	2170.043	0.172	0.000	870.8	0.4304	3.40837E-4	9.6	298	1.714024E+11	175.380	1.9598
4491.460	2169.966	0.172	0.000	835.8	0.4370	3.35670E-4	9.6	296	1.713902E+11	175.602	1.8933
4496.500	2169.917	0.197	0.000	856.4	0.4396	3.33723E-4	9.0	302	1.713825E+11	175.867	2.0123
4501.540	2169.823	0.241	0.000	858.6	0.4363	3.36235E-4	9.8	303	1.713677E+11	176.225	1.9836
4506.560	2169.752	0.095	0.000	892.8	0.4321	3.39506E-4	9.8	309	1.713565E+11	176.860	2.0556
4511.599	2169.716	0.148	0.000	887.8	0.4328	3.38960E-4	9.3	304	1.713507E+11	176.748	2.0297
4516.640	2169.604	0.120	0.000	866.3	0.4329	3.38900E-4	8.6	299	1.713331E+11	176.754	2.0026
4521.661	2169.563	0.152	0.000	887.9	0.4310	3.40431E-4	9.8	297	1.713265E+11	176.521	1.9875
4526.700	2169.536	0.148	0.000	880.3	0.4342	3.37891E-4	9.1	299	1.713224E+11	176.447	2.0612
4531.741	2169.477	0.195	0.000	870.4	0.4358	3.36673E-4	9.7	303	1.713130E+11	176.526	1.9542
4536.760	2169.400	0.128	0.000	856.4	0.4403	3.33217E-4	8.8	297	1.713009E+11	176.805	2.0594
4541.780	2169.327	0.146	0.000	866.4	0.4352	3.37169E-4	9.3	297	1.712894E+11	176.917	2.0025
4546.820	2169.273	0.134	0.000	885.2	0.4325	3.39269E-4	9.5	303	1.712809E+11	177.295	1.9080
4551.840	2169.162	0.144	0.000	899.3	0.4322	3.39560E-4	9.8	309	1.712634E+11	177.620	1.9963
4556.880	2169.187	0.145	0.000	902.0	0.4302	3.41087E-4	9.1	299	1.712672E+11	177.829	1.9909
4561.920	2169.132	0.174	0.000	847.2	0.4394	3.34001E-4	9.6	297	1.712585E+11	178.077	2.1962
4566.960	2169.058	0.141	0.000	855.5	0.4365	3.36199E-4	10.2	302	1.712469E+11	178.438	2.2731
4572.000	2168.938	0.151	0.000	874.1	0.4351	3.37302E-4	9.6	306	1.712278E+11	178.890	2.2796
4577.041	2168.937	0.173	0.000	886.6	0.4341	3.38089E-4	8.9	296	1.712278E+11	179.070	2.1793
4582.080	2168.896	0.191	0.000	873.7	0.4362	3.36484E-4	9.4	307	1.712214E+11	179.025	2.0447
4587.100	2168.846	0.130	0.000	846.8	0.4457	3.29258E-4	9.9	320	1.712134E+11	178.649	1.9446
4592.140	2168.765	0.185	0.000	856.7	0.4411	3.32771E-4	9.8	306	1.712006E+11	178.620	1.8968
4597.180	2168.676	0.180	0.000	870.3	0.4387	3.34552E-4	9.0	305	1.711865E+11	178.671	1.9802
4602.200	2168.642	0.154	0.000	871.8	0.4361	3.36588E-4	9.2	298	1.711811E+11	178.830	1.8993
4607.241	2168.535	0.183	0.000	867.1	0.4385	3.34747E-4	9.3	306	1.711643E+11	179.135	1.9475
4612.260	2168.556	0.151	0.000	877.1	0.4378	3.35254E-4	9.6	299	1.711675E+11	179.469	2.0171
4617.300	2168.457	0.181	0.000	830.1	0.4443	3.30350E-4	9.1	300	1.711520E+11	179.758	1.9730
4622.320	2168.419	0.190	0.000	838.1	0.4245	3.45830E-4	10.0	303	1.711460E+11	180.047	2.0083
4627.360	2168.295	0.204	0.000	785.7	0.4470	3.28452E-4	9.3	295	1.711264E+11	180.234	1.9633
4632.400	2168.236	0.195	0.000	830.5	0.4400	3.33649E-4	9.1	300	1.711171E+11	180.390	2.0963
4637.440	2168.179	0.162	0.000	839.4	0.4431	3.31309E-4	9.8	326	1.711081E+11	180.612	2.2632
4642.480	2168.188	0.142	0.000	833.0	0.4396	3.33968E-4	9.1	300	1.711096E+11	181.161	2.2200
4647.520	2168.047	0.127	0.000	799.6	0.4502	3.26137E-4	9.4	323	1.710872E+11	181.547	2.0939
4652.560	2167.937	0.227	0.000	861.8	0.4387	3.34699E-4	9.7	309	1.710699E+11	181.771	1.9941
4657.600	2167.961	0.203	0.000	876.5	0.4325	3.39460E-4	9.7	304	1.710736E+11	181.336	1.8575
4662.620	2167.880	0.140	0.000	826.3	0.4475	3.28124E-4	9.6	323	1.710610E+11	181.085	1.7670
4667.660	2167.881	0.192	0.000	844.4	0.4377	3.35483E-4	9.6	303	1.710610E+11	181.027	1.7884
4672.680	2167.795	0.208	0.000	814.3	0.4471	3.28439E-4	8.9	306	1.710475E+11	181.100	1.8095
4677.700	2167.694	0.167	0.000	815.3	0.4443	3.30476E-4	9.3	299	1.710316E+11	181.428	1.9317
4682.720	2167.613	0.085	0.000	832.2	0.4398	3.33919E-4	9.6	297	1.710187E+11	181.868	2.0420
4687.740	2167.599	0.162	0.000	871.0	0.4332	3.38958E-4	10.1	309	1.710165E+11	182.219	2.0394
4692.780	2167.542	0.140	0.000	820.5	0.4435	3.31135E-4	8.7	300	1.710076E+11	182.346	2.0640
4697.800	2167.525	0.188	0.000	828.5	0.4426	3.31769E-4	9.5	306	1.710049E+11	182.597	1.9923
4702.820	2167.396	0.136	0.000	801.2	0.4530	3.24188E-4	9.4	326	1.709845E+11	182.792	2.0322
4707.860	2167.394	0.180	0.000	831.8	0.4473	3.28312E-4	9.5	322	1.709842E+11	183.082	2.2145
4712.900	2167.275	0.145	0.000	809.3	0.4478	3.27981E-4	9.4	306	1.709654E+11	183.471	2.2883
4717.940	2167.253	0.155	0.000	827.2	0.4423	3.32035E-4	9.6	298	1.709619E+11	183.869	2.1686
4722.980	2167.145	0.199	0.000	830.3	0.4430	3.31542E-4	9.4	309	1.709449E+11	183.700	1.9775
4728.020	2167.063	0.161	0.000	833.2	0.4362	3.36710E-4	9.3	296	1.709320E+11	183.298	1.9476
4733.040	2167.113	0.134	0.000	849.8	0.4372	3.35966E-4	8.3	299	1.709398E+11	183.318	1.9044
4738.061	2166.992	0.144	0.000	792.2	0.4520	3.24999E-4	9.4	302	1.709208E+11	183.473	2.0121
4743.080	2166.872	0.193	0.000	831.6	0.4407	3.33320E-4	10.3	302	1.709019E+11	183.730	1.9750
4748.100	2166.880	0.133	0.000	865.2	0.4357	3.37124E-4	8.7	304	1.709031E+11	184.031	1.8334
4753.140	2166.863	0.127	0.000	824.5	0.4407	3.33318E-4	8.8	300	1.709004E+11	184.377	1.8597
4758.160	2166.809	0.238	0.000	802.3	0.4473	3.28414E-4	9.5	300	1.708920E+11	184.514	1.8583
4763.180	2166.724	0.152	0.000	801.1	0.4462	3.29208E-4	9.9	298	1.708785E+11	184.682	2.0268
4768.220	2166.623	0.169	0.000	826.5	0.4442	3.30733E-4	9.5	304	1.708625E+11	184.989	2.1357
4773.260	2166.606	0.146	0.000	844.1	0.4397	3.34150E-4	9.6	302	1.708599E+11	185.659	2.3133
4778.280	2166.515	0.077	0.000	809.9	0.4492	3.27110E-4	8.8	298	1.708455E+11	185.782	2.2866
4783.320	2166.473	0.168	0.000	837.2	0.4428	3.31774E-4	9.4	303	1.708389E+11	185.429	2.0961
4788.360	2166.385	0.165	0.000	827.8	0.4484	3.27691E-4	9.6	323	1.708251E+11	185.741	2.0719
4793.400	2166.345	0.205	0.000	848.9	0.4400	3.33956E-4	9.1	306	1.708188E+11	185.450	1.9418
4798.440	2166.307	0.159	0.000	829.7	0.4433	3.31461E-4	9.0	300	1.708128E+11	185.483	1.9550
4803.460	2166.228	0.127	0.000	824.7	0.4449	3.30314E-4	9.5	304	1.708004E+11	185.674	2.0808
4808.500	2166.148	0.122	0.000	840.4	0.4481	3.27905E-4	9.6	327	1.707877E+11	185.907	1.9473
4813.540	2166.127	0.147	0.000	871.6	0.4354	3.37511E-4	9.5	303	1.707844E+11	186.313	1.8823
4818.560	2166.077	0.234	0.000	851.6	0.4468	3.28871E-4	9.8	305	1.707765E+11	186.553	1.8745
4823.600	2165.992	0.172	0.000	843.8	0.4419	3.32540E-4	9.3	302	1.707630E+11	186.775	1.9760
4828.640	2165.911	0.196	0.000	864.2	0.4392	3.34581E-4	9.2	304	1.707503E+11	187.262	2.1479
4833.680	2165.904	0.147	0.000	869.3	0.4373	3.36042E-4	9.3	300	1.707492E+11	187.707	2.0841
4838.720	2165.784	0.138	0.000	840.4	0.4474	3.28509E-4	9.7	323	1.707304E+11	187.642	2.0211
4843.761	2165.730	0.106	0.000	897.6	0.4357	3.37318E-4	9.4	309	1.707218E+11	187.479	1.9141
4848.800	2165.668	0.144	0.000	870.5	0.4376	3.35913E-4	8.7	300	1.707119E+11	187.352	1.9349
4853.820	2165.624	0.144	0.000	863.8	0.4397	3.34294E-4	9.0	297	1.707050E+11	187.308	1.9510
4858.860	2165.605	0.169	0.000	869.1	0.4420	3.32568E-4	9.4	326	1.707021E+11	187.418	1.9949
4863.900	2165.531	0.146	0.000	830.4	0.4469	3.28881E-4	9.1	318	1.706904E+11	187.648	2.0289
4868.920	2165.488	0.105	0.000	850.4	0.4409	3.33419E-4	9.6	300	1.706836E+11	187.835	1.9395
4873.960	2165.337	0.180	0.000	835.7	0.4432	3.31710E-4	9.2	299	1.706599E+11	188.101	1.9345
4878.980	2165.341	0.186	0.000	886.7	0.4336	3.39016E-4	9.9	300	1.706605E+11	188.492	1.9106
4884.020	2165.270	0.151	0.000	845.1	0.4453	3.30157E-4	8.9	299	1.706492E+11	188.747	1.9764
4889.040	2165.164	0.084	0.000	851.2	0.4413	3.33141E-4	8.5	297	1.706325E+11	189.012	2.1668
4894.060	2165.146	0.194	0.000	881.9	0.4347	3.38185E-4	9.9	299	1.706297E+11	189.315	2.1931
4899.100	2165.106	0.197	0.000	878.6	0.4368	3.36549E-4	9.7	309	1.706235E+11	189.882	2.1639
4904.120	2165.037	0.156	0.000	860.9	0.4387	3.35166E-4	9.8	307	1.706125E+11	189.720	2.0676
4909.160	2164.947	0.148	0.000	858.9	0.4406	3.33713E-4	9.0	303	1.705984E+11	189.733	1.9430
4914.180	2164.923	0.129	0.000	877.7	0.4365	3.36841E-4	9.1	302	1.705945E+11	189.665	1.8638
4919.220	2164.919	0.176	0.000	874.3	0.4380	3.35696E-4	10.3	309	1.705939E+11	189.514	1.8294
4924.260	2164.834	0.140	0.000	816.2	0.4457	3.29928E-4	9.8	297	1.705806E+11	189.578	1.7882
4929.300	2164.859	0.149	0.000	868.9	0.4464	3.29413E-4	8.6	333	1.705845E+11	189.769	1.8657
4934.320	2164.681	0.183	0.000	784.9	0.4542	3.23767E-4	9.6	322	1.705565E+11	190.173	1.9982
4939.360	2164.553	0.136	0.000	858.0	0.4433	3.31763E-4	9.3	304	1.705363E+11	190.579	2.0048
4944.380	2164.512	0.128	0.000	886.5	0.4371	3.36413E-4	8.9	302	1.705298E+11	190.772	1.9639
4949.401	2164.428	0.142	0.000	886.0	0.4345	3.38465E-4	9.2	307	1.705166E+11	190.983	2.0660
4954.440	2164.374	0.139	0.000	888.7	0.4329	3.39743E-4	9.3	300	1.705080E+11	191.264	2.1764
4959.460	2164.441	0.162	0.000	889.8	0.4365	3.36914E-4	9.6	305	1.705185E+11	191.545	2.2504
4964.501	2164.289	0.083	0.000	810.1	0.4537	3.24136E-4	9.5	323	1.704946E+11	192.029	2.3245
4969.540	2164.243	0.114	0.000	860.1	0.4387	3.35252E-4	9.6	300	1.704874E+11	192.042	2.1294
4974.580	2164.222	0.217	0.000	861.2	0.4435	3.31613E-4	10.0	306	1.704842E+11	191.911	2.0751
4979.620	2164.103	0.183	0.000	841.0	0.4438	3.31446E-4	10.0	307	1.704654E+11	191.750	1.8939
4984.641	2164.095	0.132	0.000	880.5	0.4379	3.35860E-4	9.2	308	1.704641E+11	191.664	1.8915
4989.660	2164.059	0.191	0.000	834.1	0.4443	3.31066E-4	9.3	300	1.704584E+11	191.893	2.0221
4994.680	2163.952	0.082	0.000	808.8	0.4486	3.27904E-4	9.5	294	1.704416E+11	192.254	1.9764
4999.700	2163.910	0.138	0.000	857.4	0.4421	3.32759E-4	9.2	305	1.704350E+11	192.665	2.0151
5004.721	2163.850	0.162	0.000	831.5	0.4445	3.30956E-4	9.7	297	1.704255E+11	192.698	1.9601
5009.740	2163.751	0.170	0.000	840.2	0.4442	3.31176E-4	9.6	299	1.704099E+11	193.009	1.8664
5014.760	2163.623	0.203	0.000	870.3	0.4432	3.31914E-4	9.3	303	1.703897E+11	193.233	1.9257
5019.780	2163.612	0.124	0.000	893.5	0.4324	3.40263E-4	10.4	296	1.703880E+11	193.417	1.9926
5024.820	2163.617	0.239	0.000	881.3	0.4364	3.37115E-4	8.6	300	1.703888E+11	193.818	2.0980
5029.840	2163.583	0.186	0.000	836.9	0.4434	3.31801E-4	9.3	317	1.703835E+11	194.370	2.1296
5034.880	2163.578	0.197	0.000	835.0	0.4453	3.30359E-4	9.3	300	1.703827E+11	194.475	1.9993
5039.920	2163.463	0.119	0.000	826.9	0.4490	3.27689E-4	10.1	333	1.703646E+11	194.258	1.8716
5044.960	2163.432	0.183	0.000	858.2	0.4460	3.29928E-4	9.6	333	1.703597E+11	193.945	1.8334
5049.980	2163.358	0.153	0.000	819.9	0.4480	3.28432E-4	9.7	302	1.703480E+11	193.826	1.9559
5055.000	2163.211	0.211	0.000	814.6	0.4498	3.27171E-4	9.4	298	1.703248E+11	194.061	2.1977
5060.040	2163.162	0.161	0.000	858.1	0.4362	3.37347E-4	9.5	296	1.703171E+11	194.342	2.3156
5065.080	2163.120	0.141	0.000	864.1	0.4387	3.35408E-4	8.9	304	1.703106E+11	194.483	2.0651
5070.100	2162.951	0.129	0.000	845.8	0.4470	3.29196E-4	9.9	304	1.702839E+11	194.926	2.0388
5075.120	2162.929	0.164	0.000	882.1	0.4351	3.38223E-4	8.8	294	1.702805E+11	195.240	1.9170
5080.141	2162.964	0.245	0.000	881.7	0.4362	3.37377E-4	9.0	305	1.702859E+11	195.482	2.0841
5085.181	2162.863	0.174	0.000	820.9	0.4473	3.29024E-4	9.2	302	1.702700E+11	195.726	2.2448
5090.220	2162.751	0.118	0.000	846.8	0.4411	3.33693E-4	10.0	302	1.702524E+11	196.131	2.1725
5095.240	2162.720	0.186	0.000	877.0	0.4352	3.38227E-4	9.3	302	1.702476E+11	196.527	2.2651
5100.260	2162.794	0.200	0.000	850.2	0.4409	3.33791E-4	9.3	296	1.702592E+11	196.484	2.0091
5105.300	2162.668	0.216	0.000	785.1	0.4599	3.20013E-4	9.5	323	1.702394E+11	196.589	1.9538
5110.320	2162.571	0.115	0.000	845.2	0.4446	3.31091E-4	9.7	332	1.702241E+11	196.362	1.6756
5115.340	2162.525	0.234	0.000	867.9	0.4399	3.34619E-4	10.0	309	1.702169E+11	196.163	1.7363
5120.360	2162.421	0.146	0.000	841.4	0.4414	3.33500E-4	8.8	300	1.702004E+11	196.132	1.7468
5125.400	2162.363	0.169	0.000	861.8	0.4403	3.34340E-4	9.4	299	1.701913E+11	196.567	1.9067
5130.421	2162.311	0.172	0.000	875.6	0.4379	3.36138E-4	10.1	326	1.701831E+11	196.929	1.9857
5135.440	2162.252	0.170	0.000	889.1	0.4393	3.35074E-4	9.0	309	1.701739E+11	197.233	1.8751
5140.460	2162.271	0.170	0.000	858.0	0.4399	3.34620E-4	10.1	300	1.701769E+11	197.359	1.8921
5145.480	2162.178	0.153	0.000	801.1	0.4475	3.28946E-4	8.8	298	1.701622E+11	197.601	1.8828
5150.519	2162.156	0.147	0.000	824.9	0.4482	3.28446E-4	10.2	325	1.701588E+11	198.097	2.1987
5155.560	2161.989	0.183	0.000	825.5	0.4427	3.32554E-4	10.3	309	1.701325E+11	198.680	2.1566
5160.600	2161.979	0.206	0.000	854.4	0.4356	3.37984E-4	9.7	298	1.701308E+11	198.564	2.1781
5165.620	2161.884	0.173	0.000	837.1	0.4428	3.32528E-4	9.5	305	1.701159E+11	198.405	2.0297
5170.640	2161.809	0.185	0.000	849.6	0.4373	3.36688E-4	9.7	300	1.701041E+11	198.257	1.9507
5175.660	2161.757	0.202	0.000	856.9	0.4406	3.34205E-4	10.2	302	1.700960E+11	198.121	1.9936
5180.700	2161.693	0.139	0.000	886.1	0.4365	3.37309E-4	9.6	309	1.700859E+11	198.283	2.0081
5185.740	2161.626	0.218	0.000	857.1	0.4411	3.33872E-4	9.2	303	1.700754E+11	198.445	1.8761
5190.760	2161.566	0.134	0.000	870.7	0.4401	3.34626E-4	9.2	308	1.700660E+11	198.816	1.8285
5195.780	2161.509	0.166	0.000	855.1	0.4378	3.36383E-4	9.3	299	1.700569E+11	199.191	1.8786
5200.820	2161.480	0.159	0.000	872.4	0.4352	3.38366E-4	9.1	308	1.700524E+11	199.404	2.0285
5205.841	2161.475	0.119	0.000	855.4	0.4381	3.36107E-4	9.5	309	1.700517E+11	199.625	2.1597
5210.860	2161.386	0.168	0.000	808.1	0.4482	3.28592E-4	9.9	323	1.700376E+11	200.053	2.2719
5215.880	2161.267	0.161	0.000	812.2	0.4484	3.28444E-4	10.0	318	1.700188E+11	200.463	2.3504
5220.900	2161.194	0.237	0.000	852.8	0.4393	3.35240E-4	9.3	302	1.700073E+11	200.739	2.2883
5225.940	2161.184	0.166	0.000	862.6	0.4355	3.38212E-4	9.5	303	1.700059E+11	200.350	2.0994
5230.980	2161.148	0.172	0.000	832.1	0.4394	3.35171E-4	9.8	300	1.700001E+11	200.266	1.8985
5236.020	2161.023	0.197	0.000	831.2	0.4445	3.31356E-4	10.0	327	1.699805E+11	200.113	1.6596
5241.040	2160.956	0.172	0.000	870.2	0.4319	3.41019E-4	9.6	305	1.699699E+11	200.136	1.8010
5246.060	2160.886	0.134	0.000	879.8	0.4328	3.40345E-4	9.4	309	1.699589E+11	200.405	1.9097
5251.100	2160.861	0.220	0.000	873.6	0.4313	3.41544E-4	10.3	304	1.699551E+11	200.674	1.9544
5256.140	2160.771	0.126	0.000	842.0	0.4401	3.34693E-4	8.9	300	1.699409E+11	201.021	1.9754
5261.160	2160.768	0.180	0.000	872.4	0.4334	3.39932E-4	9.4	307	1.699404E+11	201.159	1.8081
5266.200	2160.702	0.123	0.000	821.7	0.4417	3.33512E-4	9.8	299	1.699300E+11	201.559	1.8726
5271.240	2160.633	0.251	0.000	830.7	0.4393	3.35338E-4	9.7	302	1.699192E+11	201.748	2.0401
5276.260	2160.529	0.114	0.000	836.3	0.4404	3.34521E-4	10.0	303	1.699028E+11	201.994	2.1341
5281.300	2160.462	0.173	0.000	855.8	0.4345	3.39055E-4	8.6	300	1.698922E+11	202.316	2.2837
5286.320	2160.387	0.228	0.000	869.9	0.4329	3.40393E-4	9.2	307	1.698805E+11	202.828	2.2776
5291.340	2160.393	0.148	0.000	865.2	0.4323	3.40810E-4	10.2	302	1.698815E+11	202.837	2.1190
5296.361	2160.362	0.193	0.000	833.2	0.4380	3.36405E-4	10.2	305	1.698765E+11	202.456	2.0063
5301.380	2160.281	0.165	0.000	804.8	0.4453	3.30917E-4	8.8	300	1.698638E+11	202.338	1.9534
5306.400	2160.149	0.152	0.000	839.9	0.4407	3.34356E-4	9.6	309	1.698430E+11	202.459	2.0705
5311.440	2160.117	0.115	0.000	854.7	0.4302	3.42561E-4	9.7	300	1.698379E+11	202.816	2.1655
5316.460	2160.023	0.184	0.000	842.5	0.4363	3.37752E-4	9.8	302	1.698232E+11	203.137	1.9774
5321.500	2159.965	0.162	0.000	865.2	0.4307	3.42198E-4	9.5	303	1.698141E+11	203.406	1.8650
5326.521	2159.867	0.137	0.000	856.0	0.4353	3.38546E-4	9.0	300	1.697986E+11	203.656	1.9194
5331.560	2159.863	0.184	0.000	877.9	0.4262	3.45827E-4	9.7	299	1.697980E+11	203.815	2.0279
5336.580	2159.876	0.195	0.000	850.0	0.4304	3.42407E-4	10.0	302	1.698000E+11	204.075	2.2242
5341.620	2159.758	0.200	0.000	815.8	0.4386	3.36008E-4	9.6	306	1.697815E+11	204.413	2.3130
5346.660	2159.717	0.181	0.000	859.2	0.4325	3.40798E-4	9.7	309	1.697750E+11	204.821	2.3282
5351.700	2159.659	0.195	0.000	826.3	0.4375	3.36907E-4	9.2	302	1.697660E+11	205.185	2.2828
5356.740	2159.578	0.098	0.000	825.7	0.4395	3.35339E-4	10.3	305	1.697533E+11	205.394	2.3399
5361.760	2159.494	0.163	0.000	831.7	0.4392	3.35591E-4	9.3	304	1.697401E+11	205.061	2.1285
5366.800	2159.455	0.123	0.000	830.9	0.4343	3.39412E-4	9.5	295	1.697339E+11	204.872	2.0800
5371.840	2159.397	0.184	0.000	834.3	0.4373	3.37082E-4	9.6	304	1.697247E+11	204.752	1.9236
5376.879	2159.321	0.190	0.000	836.0	0.4361	3.37990E-4	9.7	306	1.697129E+11	204.776	1.9552
5381.900	2159.241	0.150	0.000	858.3	0.4368	3.37505E-4	9.2	309	1.697002E+11	205.053	1.9656
5386.920	2159.199	0.178	0.000	843.2	0.4330	3.40489E-4	9.9	299	1.696937E+11	205.387	1.9674
5391.941	2159.082	0.172	0.000	863.0	0.4336	3.39984E-4	9.6	309	1.696753E+11	205.705	2.0364
5396.980	2159.083	0.160	0.000	877.5	0.4292	3.43523E-4	9.4	308	1.696755E+11	206.006	1.9551
5402.001	2159.038	0.216	0.000	822.9	0.4366	3.37657E-4	8.7	299	1.696683E+11	206.209	2.1246
5407.040	2158.966	0.177	0.000	837.2	0.4355	3.38571E-4	9.1	309	1.696571E+11	206.527	2.2289
5412.080	2158.938	0.225	0.000	815.2	0.4335	3.40114E-4	10.0	298	1.696527E+11	207.033	2.2758
5417.100	2158.844	0.184	0.000	804.6	0.4420	3.33605E-4	9.4	303	1.696378E+11	207.142	2.1406
5422.141	2158.764	0.159	0.000	817.4	0.4382	3.36518E-4	9.8	300	1.696253E+11	207.029	1.9421
5427.180	2158.665	0.099	0.000	847.0	0.4317	3.41591E-4	10.1	307	1.696098E+11	206.720	1.8606
5432.200	2158.565	0.193	0.000	856.0	0.4267	3.45585E-4	9.5	300	1.695941E+11	206.693	1.7900
5437.240	2158.555	0.245	0.000	875.3	0.4281	3.44491E-4	8.5	300	1.695924E+11	206.837	1.9981
5442.260	2158.547	0.181	0.000	840.5	0.4308	3.42294E-4	9.3	298	1.695912E+11	207.080	1.9492
5447.300	2158.526	0.136	0.000	816.3	0.4380	3.36717E-4	9.6	303	1.695878E+11	207.306	2.0396
5452.340	2158.410	0.203	0.000	787.5	0.4390	3.35898E-4	9.4	299	1.695697E+11	207.716	1.9810
5457.360	2158.303	0.170	0.000	812.1	0.4384	3.36385E-4	9.4	300	1.695528E+11	208.055	1.9335
5462.400	2158.203	0.230	0.000	836.5	0.4323	3.41139E-4	9.5	299	1.695372E+11	208.279	2.1085
5467.440	2158.180	0.214	0.000	860.4	0.4257	3.46497E-4	9.5	300	1.695335E+11	208.706	2.1306
5472.480	2158.162	0.224	0.000	850.8	0.4336	3.40127E-4	9.3	309	1.695307E+11	209.264	2.1926
5477.501	2158.038	0.166	0.000	809.5	0.4338	3.39990E-4	8.8	302	1.695113E+11	209.136	2.2101
5482.520	2157.988	0.164	0.000	853.8	0.4320	3.41463E-4	9.6	307	1.695034E+11	209.124	2.1162
5487.561	2157.872	0.191	0.000	833.8	0.4340	3.39871E-4	10.3	300	1.694851E+11	208.913	2.1241
5492.580	2157.753	0.174	0.000	870.7	0.4248	3.47227E-4	9.8	304	1.694664E+11	208.872	2.1781
5497.621	2157.723	0.148	0.000	893.5	0.4194	3.51727E-4	9.1	300	1.694618E+11	208.993	1.9915
5502.640	2157.776	0.185	0.000	884.4	0.4221	3.49475E-4	9.7	305	1.694700E+11	209.339	1.9143
5507.660	2157.772	0.209	0.000	814.1	0.4336	3.40190E-4	10.1	300	1.694695E+11	209.743	1.8286
5512.680	2157.697	0.185	0.000	789.2	0.4378	3.36976E-4	9.2	304	1.694577E+11	209.952	1.8169
5517.720	2157.546	0.132	0.000	789.4	0.4373	3.37404E-4	8.9	299	1.694339E+11	210.226	2.1101
5522.760	2157.442	0.180	0.000	855.1	0.4284	3.44419E-4	9.5	308	1.694175E+11	210.633	2.1245
5527.780	2157.422	0.171	0.000	885.7	0.4199	3.51363E-4	9.9	289	1.694145E+11	211.161	2.2368
5532.820	2157.444	0.186	0.000	840.8	0.4315	3.41895E-4	9.7	302	1.694179E+11	210.962	2.1024
5537.860	2157.347	0.182	0.000	800.5	0.4383	3.36636E-4	9.4	305	1.694026E+11	211.266	2.1105
5542.881	2157.209	0.139	0.000	814.7	0.4360	3.38403E-4	9.5	303	1.693811E+11	210.915	1.9812
5547.900	2157.222	0.218	0.000	869.2	0.4245	3.47610E-4	9.1	309	1.693830E+11	210.750	1.8782
5552.920	2157.124	0.206	0.000	811.8	0.4338	3.40133E-4	9.2	302	1.693677E+11	210.739	1.9751
5557.961	2157.121	0.242	0.000	825.2	0.4309	3.42427E-4	9.0	300	1.693673E+11	211.030	2.0959
5562.980	2156.982	0.144	0.000	812.8	0.4356	3.38791E-4	10.0	309	1.693454E+11	211.454	2.0983
5568.020	2156.921	0.195	0.000	825.9	0.4299	3.43306E-4	9.4	297	1.693357E+11	211.829	1.9731
5573.060	2156.913	0.176	0.000	843.9	0.4274	3.45321E-4	9.4	306	1.693345E+11	212.012	1.9370
5578.100	2156.907	0.192	0.000	804.8	0.4322	3.41493E-4	10.2	302	1.693337E+11	212.226	1.9655
5583.120	2156.814	0.217	0.000	777.8	0.4362	3.38339E-4	9.6	300	1.693190E+11	212.713	2.0295
5588.140	2156.694	0.197	0.000	823.0	0.4314	3.42132E-4	10.2	309	1.693002E+11	213.141	2.0254
5593.160	2156.578	0.172	0.000	844.1	0.4293	3.43823E-4	9.2	304	1.692819E+11	212.988	1.7862
5598.181	2156.541	0.168	0.000	869.5	0.4184	3.52756E-4	9.2	279	1.692762E+11	212.594	1.5312
5603.200	2156.499	0.226	0.000	847.1	0.4256	3.46842E-4	10.0	297	1.692695E+11	212.363	1.6117
5608.220	2156.425	0.172	0.000	870.5	0.4240	3.48159E-4	9.7	309	1.692580E+11	212.527	1.8591
5613.260	2156.332	0.271	0.000	837.3	0.4259	3.46588E-4	9.8	298	1.692433E+11	212.825	2.0510
5618.300	2156.305	0.162	0.000	858.9	0.4244	3.47860E-4	9.3	302	1.692390E+11	213.264	2.0997
5623.321	2156.233	0.178	0.000	829.2	0.4255	3.46951E-4	9.4	299	1.692279E+11	213.653	1.9210
5628.360	2156.158	0.217	0.000	834.7	0.4248	3.47503E-4	9.1	298	1.692159E+11	213.756	1.8929
5633.400	2156.088	0.170	0.000	862.9	0.4222	3.49709E-4	9.5	309	1.692050E+11	213.940	1.8150
5638.421	2156.079	0.191	0.000	853.0	0.4217	3.50114E-4	9.2	300	1.692036E+11	214.265	1.9068
5643.460	2155.963	0.200	0.000	853.3	0.4255	3.46952E-4	9.7	309	1.691854E+11	214.651	2.0947
5648.480	2155.936	0.213	0.000	855.7	0.4221	3.49810E-4	9.9	299	1.691811E+11	215.206	2.1432
5653.500	2155.912	0.184	0.000	855.1	0.4233	3.48755E-4	10.0	309	1.691774E+11	214.978	1.8939
5658.540	2155.862	0.141	0.000	813.3	0.4307	3.42832E-4	9.6	302	1.691696E+11	214.840	1.8801
5663.580	2155.752	0.150	0.000	802.5	0.4291	3.44130E-4	9.7	300	1.691524E+11	214.708	1.8962
5668.619	2155.677	0.249	0.000	829.8	0.4266	3.46102E-4	10.0	309	1.691405E+11	214.617	1.8706
5673.660	2155.598	0.162	0.000	811.1	0.4273	3.45610E-4	9.2	300	1.691281E+11	214.825	2.0741
5678.700	2155.585	0.224	0.000	819.0	0.4259	3.46737E-4	9.6	300	1.691261E+11	215.131	1.8771
5683.740	2155.588	0.247	0.000	791.9	0.4274	3.45515E-4	10.4	299	1.691266E+11	215.428	1.8866
5688.780	2155.446	0.139	0.000	764.0	0.4380	3.37172E-4	9.4	304	1.691043E+11	215.792	2.0105
5693.801	2155.375	0.217	0.000	810.9	0.4293	3.44002E-4	9.2	305	1.690931E+11	216.011	1.8838
5698.840	2155.337	0.131	0.000	802.8	0.4258	3.46823E-4	9.3	297	1.690871E+11	216.206	2.1660
5703.860	2155.223	0.196	0.000	800.9	0.4258	3.46857E-4	9.2	302	1.690693E+11	216.546	2.1870
5708.899	2155.185	0.241	0.000	834.2	0.4184	3.53008E-4	9.3	284	1.690633E+11	217.128	2.1026
5713.920	2155.233	0.204	0.000	840.7	0.4237	3.48601E-4	8.4	309	1.690709E+11	217.278	2.1175
5718.960	2155.108	0.164	0.000	756.4	0.4335	3.40694E-4	9.7	302	1.690513E+11	217.266	2.0494
5724.000	2155.099	0.168	0.000	783.2	0.4275	3.45472E-4	9.8	298	1.690498E+11	216.902	1.9804
5729.040	2154.979	0.136	0.000	771.4	0.4284	3.44763E-4	9.3	307	1.690309E+11	216.895	2.0262
5734.060	2154.917	0.186	0.000	823.1	0.4175	3.53841E-4	9.5	290	1.690213E+11	216.769	1.8944
5739.100	2154.894	0.249	0.000	795.3	0.4228	3.49377E-4	9.0	300	1.690177E+11	216.883	1.8642
5744.120	2154.865	0.195	0.000	788.7	0.4251	3.47485E-4	10.6	307	1.690131E+11	217.166	1.7510
5749.140	2154.739	0.114	0.000	764.6	0.4293	3.44140E-4	8.9	303	1.689934E+11	217.524	1.7186
5754.160	2154.588	0.217	0.000	789.5	0.4266	3.46298E-4	10.2	300	1.689697E+11	217.944	1.9400
5759.200	2154.499	0.182	0.000	835.6	0.4145	3.56394E-4	10.4	281	1.689557E+11	218.184	2.1711
5764.240	2154.526	0.168	0.000	839.8	0.4107	3.59753E-4	9.6	280	1.689599E+11	218.476	2.4076
5769.280	2154.432	0.176	0.000	777.4	0.4275	3.45611E-4	9.4	296	1.689451E+11	219.020	2.5508
5774.320	2154.367	0.176	0.000	804.1	0.4196	3.52083E-4	9.8	281	1.689351E+11	219.102	2.4160
5779.361	2154.236	0.155	0.000	818.3	0.4187	3.52887E-4	9.0	308	1.689145E+11	218.905	2.2759
5784.380	2154.194	0.149	0.000	859.2	0.4106	3.59873E-4	9.6	289	1.689079E+11	219.100	1.9593
5789.420	2154.120	0.189	0.000	832.8	0.4131	3.57712E-4	8.8	281	1.688963E+11	219.037	1.8873
5794.440	2154.042	0.134	0.000	840.6	0.4080	3.62165E-4	9.4	279	1.688840E+11	218.833	1.6322
5799.480	2154.035	0.141	0.000	855.6	0.4103	3.60199E-4	9.4	284	1.688829E+11	218.856	1.6015
5804.500	2154.044	0.197	0.000	814.7	0.4146	3.56452E-4	8.9	277	1.688843E+11	219.076	1.7002
5809.520	2153.920	0.156	0.000	791.7	0.4178	3.53755E-4	8.7	284	1.688650E+11	219.548	1.7950
5814.560	2153.881	0.166	0.000	824.1	0.4168	3.54609E-4	9.8	286	1.688588E+11	219.712	1.9498
5819.600	2153.822	0.192	0.000	799.1	0.4195	3.52268E-4	9.3	300	1.688496E+11	219.974	1.9049
5824.641	2153.697	0.161	0.000	794.1	0.4188	3.52927E-4	9.5	278	1.688300E+11	220.331	1.8973
5829.680	2153.744	0.198	0.000	836.9	0.4112	3.59382E-4	9.7	283	1.688373E+11	220.524	1.9756
5834.720	2153.673	0.180	0.000	783.5	0.4165	3.54819E-4	9.7	283	1.688262E+11	220.958	2.1592
5839.740	2153.588	0.191	0.000	781.2	0.4189	3.52831E-4	9.7	300	1.688129E+11	221.579	2.1939
5844.760	2153.622	0.170	0.000	792.3	0.4132	3.57718E-4	9.5	279	1.688182E+11	221.863	2.2007
5849.800	2153.472	0.175	0.000	738.2	0.4316	3.42456E-4	9.1	299	1.687947E+11	221.486	2.0008
5854.821	2153.366	0.201	0.000	789.3	0.4184	3.53266E-4	9.9	302	1.687780E+11	221.263	2.0292
5859.860	2153.198	0.152	0.000	800.4	0.4133	3.57665E-4	8.8	277	1.687518E+11	221.095	2.0193
5864.881	2153.220	0.199	0.000	873.3	0.4021	3.67636E-4	10.1	290	1.687552E+11	221.317	2.1099
5869.921	2153.226	0.198	0.000	828.0	0.4119	3.58878E-4	9.4	289	1.687561E+11	221.637	2.1001
5874.960	2153.095	0.202	0.000	814.3	0.4173	3.54314E-4	10.4	309	1.687355E+11	222.014	1.9401
5880.000	2153.057	0.200	0.000	828.8	0.4098	3.60725E-4	10.2	288	1.687296E+11	222.205	1.9207
5885.041	2152.955	0.162	0.000	796.9	0.4202	3.51846E-4	9.2	300	1.687136E+11	222.403	1.9423
5890.060	2152.940	0.190	0.000	824.9	0.4109	3.59828E-4	9.1	281	1.687113E+11	222.770	2.1421
5895.080	2152.805	0.305	0.000	806.1	0.4176	3.54043E-4	10.6	307	1.686901E+11	222.932	2.2125
5900.100	2152.795	0.149	0.000	838.4	0.4056	3.64586E-4	9.2	281	1.686886E+11	223.274	2.2743
5905.140	2152.748	0.227	0.000	834.4	0.4074	3.62908E-4	8.5	290	1.686811E+11	223.825	2.2632
5910.160	2152.690	0.161	0.000	797.0	0.4117	3.59198E-4	9.1	278	1.686720E+11	223.591	1.9786
5915.180	2152.574	0.249	0.000	813.4	0.4116	3.59287E-4	9.6	289	1.686540E+11	223.162	2.0003
5920.220	2152.537	0.202	0.000	827.9	0.4100	3.60645E-4	9.9	281	1.686481E+11	223.101	2.0504
5925.260	2152.524	0.250	0.000	823.9	0.4118	3.59131E-4	9.0	287	1.686462E+11	223.301	2.1049
5930.280	2152.460	0.159	0.000	779.4	0.4174	3.54332E-4	10.1	297	1.686361E+11	223.576	2.0475
5935.320	2152.403	0.192	0.000	783.6	0.4147	3.56645E-4	9.3	278	1.686271E+11	223.992	1.8196
5940.360	2152.334	0.158	0.000	792.3	0.4126	3.58456E-4	9.8	283	1.686164E+11	224.233	1.8984
5945.380	2152.236	0.237	0.000	810.7	0.4121	3.58883E-4	9.0	290	1.686010E+11	224.504	2.0370
5950.400	2152.079	0.255	0.000	804.8	0.4105	3.60325E-4	9.2	280	1.685763E+11	224.950	2.2811
5955.420	2152.110	0.185	0.000	854.5	0.4021	3.67792E-4	10.3	284	1.685812E+11	225.544	2.4548
5960.440	2152.049	0.251	0.000	808.3	0.4094	3.61285E-4	10.0	286	1.685716E+11	225.270	2.2082
5965.480	2152.058	0.183	0.000	793.3	0.4107	3.60099E-4	9.2	280	1.685731E+11	224.943	2.1628
5970.500	2152.012	0.252	0.000	753.2	0.4217	3.50726E-4	9.5	300	1.685660E+11	224.735	2.0927
5975.520	2151.947	0.198	0.000	754.0	0.4175	3.54317E-4	9.4	284	1.685556E+11	224.976	2.1470
5980.540	2151.735	0.195	0.000	757.5	0.4208	3.51512E-4	9.9	286	1.685224E+11	225.351	2.1360
5985.560	2151.815	0.220	0.000	822.8	0.4057	3.64593E-4	9.5	279	1.685350E+11	225.758	1.8863
5990.580	2151.702	0.197	0.000	750.1	0.4173	3.54521E-4	9.2	277	1.685173E+11	225.949	1.8622
5995.600	2151.626	0.144	0.000	786.3	0.4126	3.58586E-4	9.8	281	1.685055E+11	226.263	1.9297
6000.639	2151.527	0.158	0.000	806.8	0.4104	3.60523E-4	10.4	289	1.684899E+11	226.907	2.1242
6005.680	2151.471	0.165	0.000	805.0	0.4070	3.63550E-4	9.1	279	1.684811E+11	227.070	2.1044
6012.040	2151.420	0.193	0.000	801.6	0.4082	3.62476E-4	9.8	285	1.684732E+11	226.740	2.0193
6017.060	2151.263	0.207	0.000	781.7	0.4105	3.60476E-4	9.6	278	1.684486E+11	227.072	2.1431
6022.080	2151.162	0.178	0.000	824.8	0.4030	3.67190E-4	9.6	279	1.684328E+11	227.516	2.2608
6027.120	2151.142	0.171	0.000	843.3	0.4002	3.69774E-4	9.6	281	1.684295E+11	227.523	2.1057
6032.160	2151.151	0.220	0.000	842.3	0.4003	3.69615E-4	10.2	290	1.684311E+11	227.657	2.1121
6037.200	2150.937	0.201	0.000	794.3	0.4087	3.62126E-4	10.1	288	1.683975E+11	227.426	2.0027
6042.221	2151.049	0.245	0.000	861.0	0.3971	3.72695E-4	9.0	283	1.684150E+11	227.277	1.9539
6047.260	2150.949	0.254	0.000	769.0	0.4144	3.57146E-4	9.3	300	1.683995E+11	227.267	1.9083
6052.300	2150.962	0.255	0.000	792.0	0.4060	3.64489E-4	9.2	281	1.684015E+11	227.327	1.8089
6057.320	2150.869	0.219	0.000	761.3	0.4168	3.55029E-4	9.7	306	1.683868E+11	227.598	1.6989
6062.360	2150.705	0.174	0.000	799.9	0.4110	3.60078E-4	9.0	290	1.683611E+11	228.011	1.8013
6067.400	2150.680	0.184	0.000	843.6	0.4008	3.69283E-4	10.1	290	1.683573E+11	228.431	1.9727
6072.420	2150.601	0.226	0.000	806.8	0.4032	3.67094E-4	10.9	286	1.683450E+11	228.688	2.1737
6077.460	2150.466	0.216	0.000	798.6	0.4058	3.64742E-4	9.9	280	1.683238E+11	228.958	2.2712
6082.480	2150.460	0.164	0.000	833.6	0.3981	3.71809E-4	9.3	280	1.683228E+11	229.311	2.5540
6087.500	2150.440	0.176	0.000	841.4	0.4004	3.69725E-4	9.5	290	1.683197E+11	229.923	2.6859
6092.521	2150.324	0.202	0.000	789.3	0.4091	3.61816E-4	10.7	286	1.683015E+11	229.626	2.4195
6097.560	2150.234	0.246	0.000	810.6	0.4011	3.69047E-4	9.2	281	1.682875E+11	229.376	2.2218
6102.580	2150.277	0.239	0.000	825.0	0.4005	3.69577E-4	9.7	284	1.682942E+11	229.286	1.8842
6107.620	2150.220	0.229	0.000	760.3	0.4065	3.64145E-4	9.1	276	1.682853E+11	229.230	1.7833
6112.660	2150.216	0.207	0.000	772.9	0.4075	3.63301E-4	10.0	284	1.682846E+11	229.330	1.7304
6117.700	2150.094	0.159	0.000	740.7	0.4180	3.54208E-4	9.3	284	1.682655E+11	229.780	1.7432
6122.740	2150.018	0.261	0.000	765.9	0.4094	3.61619E-4	9.4	281	1.682537E+11	230.045	1.9296
6127.780	2149.909	0.318	0.000	765.6	0.4090	3.61994E-4	9.8	277	1.682366E+11	230.513	1.9637
6132.800	2149.775	0.253	0.000	799.6	0.4020	3.68299E-4	9.9	283	1.682156E+11	230.738	1.9421
6137.820	2149.813	0.254	0.000	848.1	0.3979	3.72143E-4	9.5	290	1.682216E+11	230.943	1.9420
6142.861	2149.814	0.228	0.000	780.4	0.4062	3.64549E-4	9.3	281	1.682217E+11	231.205	2.0715
6147.880	2149.650	0.213	0.000	740.1	0.4082	3.62727E-4	9.4	277	1.681960E+11	231.826	2.2412
6152.920	2149.709	0.364	0.000	792.1	0.4051	3.65525E-4	10.4	279	1.682052E+11	232.212	2.2232
6157.940	2149.551	0.186	0.000	733.9	0.4099	3.61286E-4	8.9	280	1.681805E+11	231.724	2.2072
6162.980	2149.375	0.251	0.000	779.2	0.4026	3.67813E-4	8.6	279	1.681530E+11	231.515	2.2992
6168.020	2149.422	0.197	0.000	842.0	0.3948	3.75074E-4	9.5	283	1.681604E+11	231.441	2.3124
6173.059	2149.424	0.206	0.000	788.1	0.4005	3.69754E-4	9.5	281	1.681606E+11	231.493	2.0105
6178.100	2149.167	0.201	0.000	756.7	0.4052	3.65504E-4	8.7	281	1.681205E+11	231.658	1.6770
6183.140	2149.058	0.196	0.000	853.6	0.3872	3.82516E-4	8.7	262	1.681034E+11	232.268	1.6515
6188.160	2149.095	0.170	0.000	872.6	0.3902	3.79569E-4	9.9	286	1.681092E+11	232.596	1.8108
6193.200	2149.134	0.167	0.000	815.9	0.3925	3.77351E-4	9.3	280	1.681153E+11	232.822	2.1719
6198.220	2149.072	0.253	0.000	779.9	0.4028	3.67707E-4	8.5	289	1.681056E+11	233.135	2.3589
6203.260	2148.792	0.173	0.000	768.5	0.4014	3.69000E-4	9.3	285	1.680617E+11	233.657	2.4774
6208.280	2148.822	0.210	0.000	854.4	0.3839	3.85871E-4	8.9	257	1.680665E+11	233.797	2.4706
6213.300	2148.702	0.200	0.000	818.5	0.3933	3.76695E-4	10.1	260	1.680477E+11	234.161	2.3445
6218.320	2148.712	0.209	0.000	861.0	0.3868	3.82945E-4	9.8	268	1.680493E+11	233.770	1.9361
6223.360	2148.653	0.255	0.000	828.9	0.3949	3.75144E-4	10.4	290	1.680400E+11	233.485	1.8321
6228.380	2148.613	0.240	0.000	807.0	0.3980	3.72199E-4	9.6	281	1.680337E+11	233.383	1.9157
6233.400	2148.522	0.183	0.000	793.2	0.3948	3.75283E-4	8.9	281	1.680195E+11	233.595	2.0794
6238.420	2148.523	0.206	0.000	802.0	0.3982	3.72036E-4	10.2	281	1.680198E+11	234.042	2.1353
6243.440	2148.332	0.115	0.000	759.7	0.3994	3.70958E-4	9.6	278	1.679899E+11	234.573	2.0193
6248.480	2148.302	0.203	0.000	822.8	0.3901	3.79800E-4	10.0	279	1.679852E+11	234.732	1.9837
6253.520	2148.216	0.231	0.000	831.7	0.3950	3.75150E-4	9.8	290	1.679718E+11	234.987	2.0778
6258.540	2148.213	0.240	0.000	840.4	0.3877	3.82169E-4	9.2	267	1.679713E+11	235.373	2.0507
6263.580	2148.150	0.203	0.000	791.2	0.3951	3.75014E-4	9.1	278	1.679615E+11	235.863	2.0457
6268.620	2148.097	0.184	0.000	809.4	0.3879	3.82007E-4	10.0	263	1.679532E+11	235.886	1.8791
6273.640	2148.018	0.322	0.000	797.5	0.3942	3.75934E-4	9.6	281	1.679407E+11	235.672	1.7199
6278.680	2147.950	0.206	0.000	801.7	0.3907	3.79290E-4	9.5	258	1.679301E+11	235.135	1.7025
6283.700	2147.719	0.168	0.000	834.6	0.3913	3.78738E-4	9.6	270	1.678941E+11	235.228	1.8300
6288.720	2147.749	0.187	0.000	874.5	0.3826	3.87393E-4	9.9	263	1.678987E+11	235.527	2.0962
6293.760	2147.725	0.156	0.000	825.8	0.3861	3.83880E-4	8.9	259	1.678950E+11	236.023	2.1026
6298.800	2147.621	0.191	0.000	804.3	0.3900	3.80019E-4	8.7	280	1.678787E+11	236.396	2.0897
6303.821	2147.600	0.157	0.000	839.8	0.3826	3.87360E-4	9.5	266	1.678754E+11	236.587	2.0420
6308.840	2147.558	0.261	0.000	798.9	0.3940	3.76230E-4	9.6	280	1.678689E+11	236.849	2.0187
6313.861	2147.451	0.184	0.000	801.4	0.3907	3.79342E-4	9.3	265	1.678521E+11	237.462	2.2541
6318.900	2147.524	0.165	0.000	820.8	0.3831	3.86943E-4	9.8	262	1.678635E+11	237.533	2.1908
6323.920	2147.473	0.231	0.000	749.4	0.3976	3.72775E-4	9.7	280	1.678555E+11	237.541	2.0019
6328.940	2147.280	0.213	0.000	761.3	0.3959	3.74449E-4	9.5	286	1.678254E+11	237.549	1.7275
6333.960	2147.268	0.198	0.000	816.1	0.3845	3.85545E-4	9.3	259	1.678236E+11	237.217	1.5428
6339.000	2147.184	0.130	0.000	794.7	0.3913	3.78856E-4	9.4	281	1.678103E+11	237.019	1.5731
6344.041	2147.140	0.256	0.000	798.2	0.3925	3.77706E-4	9.9	281	1.678034E+11	237.324	1.8942
6349.080	2147.043	0.198	0.000	776.0	0.3946	3.75701E-4	9.7	255	1.677883E+11	237.486	1.8913
6354.100	2146.980	0.172	0.000	804.5	0.3917	3.78511E-4	9.2	283	1.677786E+11	238.164	2.1262
6359.140	2146.969	0.249	0.000	805.0	0.3876	3.82484E-4	9.3	263	1.677767E+11	238.425	1.9487
6364.180	2146.837	0.181	0.000	773.2	0.3930	3.77234E-4	10.1	281	1.677561E+11	238.667	1.9411
6369.201	2146.882	0.211	0.000	823.0	0.3834	3.86681E-4	9.0	268	1.677632E+11	239.095	2.1274
6374.240	2146.715	0.217	0.000	778.6	0.3972	3.73316E-4	9.1	290	1.677371E+11	239.487	2.0521
6379.260	2146.666	0.219	0.000	797.4	0.3864	3.83774E-4	9.1	258	1.677294E+11	239.687	2.1399
6384.280	2146.548	0.227	0.000	791.1	0.3881	3.82049E-4	9.3	259	1.677110E+11	239.096	1.9256
6389.320	2146.560	0.208	0.000	829.6	0.3809	3.89340E-4	8.6	263	1.677129E+11	238.882	1.8539
6394.360	2146.447	0.216	0.000	795.5	0.3855	3.84714E-4	9.2	264	1.676952E+11	238.957	1.9002
6399.400	2146.381	0.137	0.000	810.3	0.3836	3.86630E-4	9.4	260	1.676849E+11	239.256	1.9401
6404.440	2146.328	0.163	0.000	842.2	0.3803	3.90013E-4	9.8	270	1.676766E+11	239.398	2.0200
6409.480	2146.312	0.193	0.000	811.6	0.3843	3.85870E-4	8.8	264	1.676741E+11	239.938	2.0079
6414.500	2146.210	0.226	0.000	797.1	0.3845	3.85691E-4	9.3	269	1.676582E+11	240.251	1.9987
6419.520	2145.996	0.244	0.000	813.1	0.3876	3.82679E-4	10.0	290	1.676247E+11	240.438	2.0685
6424.560	2146.099	0.174	0.000	858.9	0.3761	3.94389E-4	9.8	262	1.676408E+11	240.806	2.1033
6429.600	2145.993	0.192	0.000	792.0	0.3858	3.84454E-4	9.5	265	1.676242E+11	241.348	2.1595
6434.640	2145.950	0.280	0.000	812.1	0.3810	3.89277E-4	8.9	264	1.676176E+11	241.287	1.9918
6439.680	2145.883	0.177	0.000	821.7	0.3828	3.87473E-4	8.6	270	1.676071E+11	241.204	1.8947
6444.720	2145.836	0.208	0.000	797.1	0.3891	3.81263E-4	9.7	281	1.675997E+11	240.939	1.6188
6449.759	2145.739	0.201	0.000	821.0	0.3827	3.87648E-4	8.9	270	1.675846E+11	240.839	1.5675
6454.780	2145.724	0.241	0.000	815.8	0.3769	3.93630E-4	9.7	261	1.675822E+11	240.777	1.6851
6459.820	2145.682	0.228	0.000	766.5	0.3888	3.81603E-4	10.1	283	1.675756E+11	241.260	1.7977
6464.840	2145.528	0.178	0.000	734.1	0.3914	3.79089E-4	9.4	287	1.675517E+11	241.658	2.0755
6469.880	2145.497	0.190	0.000	758.6	0.3858	3.84600E-4	8.3	257	1.675468E+11	242.045	2.1134
6474.920	2145.461	0.219	0.000	751.2	0.3849	3.85437E-4	9.9	261	1.675412E+11	242.291	2.1423
6479.940	2145.467	0.194	0.000	744.6	0.3904	3.80026E-4	9.3	286	1.675421E+11	242.399	1.9733
6484.960	2145.320	0.290	0.000	705.0	0.3927	3.77840E-4	9.9	259	1.675191E+11	242.732	2.1051
6489.980	2145.280	0.309	0.000	741.5	0.3866	3.83822E-4	9.6	260	1.675130E+11	243.177	2.2112
6495.000	2145.227	0.193	0.000	753.7	0.3871	3.83280E-4	9.5	270	1.675046E+11	243.472	2.1283
6500.040	2145.181	0.306	0.000	728.2	0.3856	3.84777E-4	10.3	262	1.674975E+11	243.393	2.0128
6505.060	2144.991	0.293	0.000	713.4	0.3932	3.77376E-4	9.3	280	1.674678E+11	243.052	1.8151
6510.080	2145.013	0.266	0.000	780.4	0.3793	3.91218E-4	9.4	264	1.674712E+11	242.898	1.7382
6515.120	2144.908	0.221	0.000	740.5	0.3828	3.87628E-4	9.6	263	1.674548E+11	242.916	1.8501
6520.160	2144.837	0.199	0.000	764.6	0.3826	3.87895E-4	9.7	266	1.674437E+11	243.212	1.8769
6525.200	2144.814	0.140	0.000	757.9	0.3814	3.89104E-4	8.1	263	1.674401E+11	243.714	1.9644
6530.221	2144.735	0.199	0.000	726.2	0.3858	3.84657E-4	8.5	258	1.674278E+11	244.106	2.0096
6535.241	2144.609	0.339	0.000	730.2	0.3878	3.82747E-4	9.2	260	1.674081E+11	244.301	2.1722
6540.260	2144.476	0.216	0.000	753.2	0.3759	3.94902E-4	9.6	257	1.673873E+11	244.565	2.2769
6545.300	2144.469	0.259	0.000	792.2	0.3768	3.93947E-4	8.8	264	1.673863E+11	245.017	2.4126
6550.320	2144.487	0.189	0.000	750.5	0.3791	3.91545E-4	9.9	257	1.673891E+11	245.433	2.3664
6555.340	2144.357	0.242	0.000	750.7	0.3820	3.88568E-4	9.7	270	1.673687E+11	245.437	2.1577
6560.360	2144.312	0.196	0.000	757.8	0.3814	3.89195E-4	9.9	264	1.673618E+11	245.371	2.0053
6565.381	2144.244	0.167	0.000	740.8	0.3832	3.87401E-4	9.3	258	1.673512E+11	245.042	1.7149
6570.421	2144.170	0.163	0.000	749.4	0.3789	3.91785E-4	10.1	260	1.673395E+11	244.855	1.6575
6575.440	2144.140	0.225	0.000	762.5	0.3791	3.91559E-4	9.3	265	1.673349E+11	244.887	1.7010
6580.480	2144.052	0.134	0.000	738.9	0.3794	3.91300E-4	9.2	261	1.673212E+11	245.228	1.8374
6585.520	2143.909	0.201	0.000	753.8	0.3801	3.90617E-4	8.9	264	1.672989E+11	245.444	2.0761
6590.560	2143.836	0.181	0.000	778.8	0.3767	3.94146E-4	9.8	262	1.672875E+11	245.862	2.1643
6595.580	2143.751	0.223	0.000	774.0	0.3752	3.95750E-4	9.0	258	1.672742E+11	246.280	2.0176
6600.620	2143.762	0.198	0.000	794.3	0.3737	3.97282E-4	8.9	263	1.672759E+11	246.479	1.8232
6605.640	2143.681	0.249	0.000	767.4	0.3747	3.96258E-4	8.9	263	1.672632E+11	246.620	1.8690
6610.680	2143.631	0.209	0.000	777.9	0.3725	3.98607E-4	9.3	264	1.672554E+11	246.959	2.0470
6615.721	2143.559	0.172	0.000	790.1	0.3719	3.99242E-4	9.4	270	1.672443E+11	247.431	2.1974
6620.740	2143.605	0.198	0.000	767.9	0.3769	3.94003E-4	9.9	262	1.672515E+11	247.988	2.2596
6625.760	2143.526	0.225	0.000	703.4	0.3804	3.90369E-4	8.4	253	1.672391E+11	247.577	2.0017
6630.800	2143.357	0.246	0.000	720.0	0.3816	3.89166E-4	8.9	262	1.672126E+11	247.418	2.0457
6635.820	2143.241	0.150	0.000	774.8	0.3754	3.95660E-4	9.1	268	1.671946E+11	247.146	2.1119
6640.840	2143.326	0.205	0.000	787.7	0.3684	4.03102E-4	9.3	264	1.672079E+11	247.387	2.2686
6645.861	2143.187	0.118	0.000	726.4	0.3836	3.87140E-4	8.5	269	1.671861E+11	247.735	2.2876
6650.880	2143.095	0.236	0.000	756.2	0.3748	3.96333E-4	9.6	266	1.671718E+11	248.061	1.9551
6655.920	2142.975	0.148	0.000	762.1	0.3723	3.99017E-4	9.5	261	1.671531E+11	248.273	1.8548
6660.941	2143.082	0.206	0.000	792.0	0.3665	4.05261E-4	9.6	262	1.671698E+11	248.513	1.7484
6665.960	2142.914	0.178	0.000	708.2	0.3839	3.86949E-4	8.9	257	1.671437E+11	248.779	1.9004
6670.980	2142.884	0.124	0.000	760.8	0.3711	4.00272E-4	8.8	259	1.671390E+11	249.352	2.0699
6676.020	2142.838	0.231	0.000	751.6	0.3745	3.96697E-4	8.9	262	1.671317E+11	250.004	2.0118
6681.040	2142.715	0.198	0.000	753.6	0.3739	3.97259E-4	10.0	268	1.671125E+11	249.298	1.9670
6686.060	2142.621	0.176	0.000	793.9	0.3728	3.98518E-4	8.8	270	1.670979E+11	249.129	1.9505
6691.100	2142.629	0.189	0.000	771.7	0.3736	3.97696E-4	9.8	262	1.670992E+11	249.252	2.0518
6696.120	2142.593	0.231	0.000	731.5	0.3733	3.97965E-4	10.0	257	1.670935E+11	249.021	2.0590
6701.160	2142.514	0.191	0.000	722.8	0.3774	3.93700E-4	8.9	261	1.670812E+11	249.264	2.1803
6706.200	2142.406	0.174	0.000	747.6	0.3755	3.95667E-4	9.0	270	1.670644E+11	249.722	2.1462
6711.220	2142.374	0.180	0.000	737.3	0.3720	3.99374E-4	9.5	259	1.670594E+11	250.175	2.0192
6716.240	2142.199	0.227	0.000	731.4	0.3762	3.94961E-4	9.6	265	1.670321E+11	250.364	1.9917
6721.260	2142.118	0.148	0.000	773.7	0.3688	4.02944E-4	9.2	263	1.670194E+11	250.693	2.0240
6726.280	2142.112	0.171	0.000	774.4	0.3662	4.05776E-4	9.8	261	1.670185E+11	251.305	2.2043
6731.300	2141.965	0.181	0.000	755.7	0.3706	4.01018E-4	9.8	264	1.669956E+11	251.368	2.1109
6736.340	2141.927	0.129	0.000	802.3	0.3601	4.12687E-4	9.3	246	1.669897E+11	250.867	1.9137
6741.360	2141.898	0.184	0.000	772.3	0.3674	4.04484E-4	9.8	258	1.669851E+11	250.694	1.7582
6746.400	2141.771	0.199	0.000	775.3	0.3649	4.07281E-4	9.1	265	1.669653E+11	250.659	1.7245
6751.420	2141.768	0.156	0.000	800.0	0.3602	4.12602E-4	9.3	242	1.669649E+11	250.767	1.7354
6756.440	2141.718	0.151	0.000	764.1	0.3682	4.03683E-4	9.3	261	1.669571E+11	251.249	1.8036
6761.460	2141.616	0.152	0.000	761.0	0.3642	4.08136E-4	8.4	261	1.669412E+11	251.707	1.8990
6766.500	2141.651	0.215	0.000	788.5	0.3644	4.07886E-4	8.9	270	1.669466E+11	252.013	1.9699
6771.540	2141.378	0.112	0.000	753.3	0.3729	3.98605E-4	10.2	270	1.669041E+11	252.214	2.2865
6776.560	2141.402	0.195	0.000	818.3	0.3585	4.14630E-4	9.8	267	1.669079E+11	252.660	2.4227
